# Wavelength    Photon Conversion
  0.500000  3.631278e-05
  0.501000  4.323796e-05
  0.502000  5.205029e-05
  0.503000  6.170206e-05
  0.504000  7.221664e-05
  0.505000  8.672598e-05
  0.506000  1.024356e-04
  0.507000  1.208397e-04
  0.508000  1.425080e-04
  0.509000  1.699444e-04
  0.510000  1.997067e-04
  0.511000  2.373604e-04
  0.512000  2.800231e-04
  0.513000  3.307341e-04
  0.514000  3.898930e-04
  0.515000  4.581974e-04
  0.516000  5.391121e-04
  0.517000  6.309212e-04
  0.518000  7.405705e-04
  0.519000  8.698818e-04
  0.520000  1.017566e-03
  0.521000  1.184606e-03
  0.522000  1.363306e-03
  0.523000  1.538805e-03
  0.524000  1.713825e-03
  0.525000  1.894085e-03
  0.526000  2.074420e-03
  0.527000  2.257088e-03
  0.528000  2.448438e-03
  0.529000  2.643467e-03
  0.530000  2.857980e-03
  0.531000  3.106413e-03
  0.532000  3.380434e-03
  0.533000  3.676070e-03
  0.534000  3.991871e-03
  0.535000  4.336915e-03
  0.536000  4.700855e-03
  0.537000  5.089410e-03
  0.538000  5.502389e-03
  0.539000  5.939517e-03
  0.540000  6.399413e-03
  0.541000  6.884399e-03
  0.542000  7.396420e-03
  0.543000  7.942517e-03
  0.544000  8.507323e-03
  0.545000  9.104300e-03
  0.546000  9.720362e-03
  0.547000  1.036752e-02
  0.548000  1.101552e-02
  0.549000  1.168671e-02
  0.550000  1.238039e-02
  0.551000  1.309910e-02
  0.552000  1.386373e-02
  0.553000  1.467898e-02
  0.554000  1.556178e-02
  0.555000  1.650959e-02
  0.556000  1.758236e-02
  0.557000  1.875828e-02
  0.558000  2.000896e-02
  0.559000  2.132397e-02
  0.560000  2.268098e-02
  0.561000  2.408283e-02
  0.562000  2.542123e-02
  0.563000  2.670955e-02
  0.564000  2.796033e-02
  0.565000  2.923950e-02
  0.566000  3.050406e-02
  0.567000  3.174980e-02
  0.568000  3.300382e-02
  0.569000  3.429231e-02
  0.570000  3.562515e-02
  0.571000  3.700767e-02
  0.572000  3.849146e-02
  0.573000  4.013956e-02
  0.574000  4.182066e-02
  0.575000  4.360605e-02
  0.576000  4.544315e-02
  0.577000  4.731922e-02
  0.578000  4.925278e-02
  0.579000  5.119966e-02
  0.580000  5.316416e-02
  0.581000  5.510861e-02
  0.582000  5.707146e-02
  0.583000  5.901216e-02
  0.584000  6.094040e-02
  0.585000  6.290723e-02
  0.586000  6.484853e-02
  0.587000  6.684771e-02
  0.588000  6.883420e-02
  0.589000  7.090750e-02
  0.590000  7.302594e-02
  0.591000  7.522783e-02
  0.592000  7.750630e-02
  0.593000  7.988414e-02
  0.594000  8.234888e-02
  0.595000  8.500802e-02
  0.596000  8.677865e-02
  0.597000  8.855207e-02
  0.598000  9.033794e-02
  0.599000  9.214810e-02
  0.600000  9.393491e-02
  0.601000  9.656615e-02
  0.602000  9.920313e-02
  0.603000  1.018756e-01
  0.604000  1.045625e-01
  0.605000  1.073536e-01
  0.606000  1.102448e-01
  0.607000  1.131731e-01
  0.608000  1.161511e-01
  0.609000  1.191130e-01
  0.610000  1.221545e-01
  0.611000  1.251356e-01
  0.612000  1.281715e-01
  0.613000  1.312022e-01
  0.614000  1.343029e-01
  0.615000  1.374785e-01
  0.616000  1.406512e-01
  0.617000  1.439155e-01
  0.618000  1.471972e-01
  0.619000  1.506066e-01
  0.620000  1.540579e-01
  0.621000  1.572247e-01
  0.622000  1.603791e-01
  0.623000  1.634948e-01
  0.624000  1.666924e-01
  0.625000  1.698668e-01
  0.626000  1.730442e-01
  0.627000  1.762624e-01
  0.628000  1.794604e-01
  0.629000  1.827428e-01
  0.630000  1.859930e-01
  0.631000  1.890708e-01
  0.632000  1.921694e-01
  0.633000  1.954038e-01
  0.634000  1.987469e-01
  0.635000  2.020345e-01
  0.636000  2.053582e-01
  0.637000  2.086140e-01
  0.638000  2.118239e-01
  0.639000  2.149998e-01
  0.640000  2.181987e-01
  0.641000  2.214516e-01
  0.642000  2.247134e-01
  0.643000  2.278878e-01
  0.644000  2.310113e-01
  0.645000  2.341060e-01
  0.646000  2.372708e-01
  0.647000  2.404694e-01
  0.648000  2.437530e-01
  0.649000  2.469102e-01
  0.650000  2.499851e-01
  0.651000  2.529711e-01
  0.652000  2.559458e-01
  0.653000  2.589431e-01
  0.654000  2.619167e-01
  0.655000  2.647755e-01
  0.656000  2.676211e-01
  0.657000  2.706023e-01
  0.658000  2.736280e-01
  0.659000  2.766218e-01
  0.660000  2.795113e-01
  0.661000  2.819968e-01
  0.662000  2.843990e-01
  0.663000  2.870135e-01
  0.664000  2.895460e-01
  0.665000  2.918926e-01
  0.666000  2.942181e-01
  0.667000  2.965447e-01
  0.668000  2.987710e-01
  0.669000  3.010329e-01
  0.670000  3.032416e-01
  0.671000  3.054419e-01
  0.672000  3.075993e-01
  0.673000  3.096953e-01
  0.674000  3.118055e-01
  0.675000  3.139730e-01
  0.676000  3.162208e-01
  0.677000  3.183941e-01
  0.678000  3.204766e-01
  0.679000  3.225873e-01
  0.680000  3.245726e-01
  0.681000  3.261597e-01
  0.682000  3.276753e-01
  0.683000  3.293675e-01
  0.684000  3.309727e-01
  0.685000  3.323854e-01
  0.686000  3.338097e-01
  0.687000  3.353419e-01
  0.688000  3.368874e-01
  0.689000  3.380611e-01
  0.690000  3.392617e-01
  0.691000  3.404400e-01
  0.692000  3.415611e-01
  0.693000  3.425624e-01
  0.694000  3.433342e-01
  0.695000  3.441088e-01
  0.696000  3.448526e-01
  0.697000  3.455353e-01
  0.698000  3.462257e-01
  0.699000  3.467486e-01
  0.700000  3.472998e-01
  0.701000  3.477269e-01
  0.702000  3.481883e-01
  0.703000  3.485566e-01
  0.704000  3.488329e-01
  0.705000  3.490585e-01
  0.706000  3.492419e-01
  0.707000  3.493354e-01
  0.708000  3.494660e-01
  0.709000  3.494660e-01
  0.710000  3.494609e-01
  0.711000  3.493567e-01
  0.712000  3.491604e-01
  0.713000  3.488894e-01
  0.714000  3.485907e-01
  0.715000  3.482502e-01
  0.716000  3.478772e-01
  0.717000  3.474825e-01
  0.718000  3.469909e-01
  0.719000  3.465215e-01
  0.720000  3.459941e-01
  0.721000  3.453886e-01
  0.722000  3.446809e-01
  0.723000  3.440468e-01
  0.724000  3.433240e-01
  0.725000  3.427735e-01
  0.726000  3.420543e-01
  0.727000  3.413879e-01
  0.728000  3.405777e-01
  0.729000  3.398396e-01
  0.730000  3.389387e-01
  0.731000  3.381757e-01
  0.732000  3.372271e-01
  0.733000  3.361356e-01
  0.734000  3.349086e-01
  0.735000  3.339226e-01
  0.736000  3.329556e-01
  0.737000  3.318518e-01
  0.738000  3.307531e-01
  0.739000  3.296255e-01
  0.740000  3.284285e-01
  0.741000  3.272054e-01
  0.742000  3.259851e-01
  0.743000  3.246410e-01
  0.744000  3.234035e-01
  0.745000  3.221766e-01
  0.746000  3.209599e-01
  0.747000  3.195871e-01
  0.748000  3.181352e-01
  0.749000  3.166898e-01
  0.750000  3.152663e-01
  0.751000  3.135053e-01
  0.752000  3.118414e-01
  0.753000  3.100718e-01
  0.754000  3.083727e-01
  0.755000  3.066061e-01
  0.756000  3.047936e-01
  0.757000  3.029581e-01
  0.758000  3.011680e-01
  0.759000  2.995378e-01
  0.760000  2.978456e-01
  0.761000  2.959545e-01
  0.762000  2.941108e-01
  0.763000  2.922371e-01
  0.764000  2.903157e-01
  0.765000  2.886337e-01
  0.766000  2.868364e-01
  0.767000  2.848651e-01
  0.768000  2.829353e-01
  0.769000  2.811556e-01
  0.770000  2.794222e-01
  0.771000  2.775993e-01
  0.772000  2.758034e-01
  0.773000  2.741098e-01
  0.774000  2.723335e-01
  0.775000  2.705363e-01
  0.776000  2.687286e-01
  0.777000  2.670785e-01
  0.778000  2.653589e-01
  0.779000  2.634813e-01
  0.780000  2.616950e-01
  0.781000  2.598504e-01
  0.782000  2.581390e-01
  0.783000  2.564383e-01
  0.784000  2.546256e-01
  0.785000  2.527602e-01
  0.786000  2.508364e-01
  0.787000  2.490774e-01
  0.788000  2.472984e-01
  0.789000  2.455828e-01
  0.790000  2.437847e-01
  0.791000  2.420491e-01
  0.792000  2.402413e-01
  0.793000  2.385567e-01
  0.794000  2.367317e-01
  0.795000  2.349159e-01
  0.796000  2.330210e-01
  0.797000  2.312722e-01
  0.798000  2.295408e-01
  0.799000  2.278423e-01
  0.800000  2.261538e-01
  0.801000  2.244894e-01
  0.802000  2.228778e-01
  0.803000  2.212406e-01
  0.804000  2.196347e-01
  0.805000  2.180643e-01
  0.806000  2.164227e-01
  0.807000  2.148614e-01
  0.808000  2.132232e-01
  0.809000  2.115975e-01
  0.810000  2.100259e-01
  0.811000  2.082404e-01
  0.812000  2.065539e-01
  0.813000  2.050570e-01
  0.814000  2.035614e-01
  0.815000  2.019833e-01
  0.816000  2.004316e-01
  0.817000  1.988439e-01
  0.818000  1.972866e-01
  0.819000  1.957455e-01
  0.820000  1.942382e-01
  0.821000  1.927159e-01
  0.822000  1.912241e-01
  0.823000  1.897574e-01
  0.824000  1.883351e-01
  0.825000  1.869611e-01
  0.826000  1.856466e-01
  0.827000  1.842575e-01
  0.828000  1.828482e-01
  0.829000  1.814923e-01
  0.830000  1.801148e-01
  0.831000  1.786898e-01
  0.832000  1.773045e-01
  0.833000  1.759364e-01
  0.834000  1.746095e-01
  0.835000  1.732903e-01
  0.836000  1.720326e-01
  0.837000  1.706718e-01
  0.838000  1.692693e-01
  0.839000  1.679202e-01
  0.840000  1.665659e-01
  0.841000  1.651481e-01
  0.842000  1.638302e-01
  0.843000  1.625699e-01
  0.844000  1.613304e-01
  0.845000  1.599811e-01
  0.846000  1.586558e-01
  0.847000  1.573308e-01
  0.848000  1.560426e-01
  0.849000  1.547209e-01
  0.850000  1.534284e-01
  0.851000  1.522760e-01
  0.852000  1.510861e-01
  0.853000  1.498366e-01
  0.854000  1.486151e-01
  0.855000  1.473942e-01
  0.856000  1.462021e-01
  0.857000  1.450855e-01
  0.858000  1.440060e-01
  0.859000  1.428475e-01
  0.860000  1.416846e-01
  0.861000  1.404931e-01
  0.862000  1.393961e-01
  0.863000  1.385718e-01
  0.864000  1.377481e-01
  0.865000  1.366950e-01
  0.866000  1.355813e-01
  0.867000  1.345764e-01
  0.868000  1.335885e-01
  0.869000  1.325232e-01
  0.870000  1.314687e-01
  0.871000  1.304029e-01
  0.872000  1.293743e-01
  0.873000  1.284043e-01
  0.874000  1.274509e-01
  0.875000  1.263675e-01
  0.876000  1.253323e-01
  0.877000  1.243620e-01
  0.878000  1.234013e-01
  0.879000  1.223510e-01
  0.880000  1.213248e-01
  0.881000  1.204024e-01
  0.882000  1.194776e-01
  0.883000  1.184873e-01
  0.884000  1.174525e-01
  0.885000  1.164612e-01
  0.886000  1.154793e-01
  0.887000  1.145040e-01
  0.888000  1.135040e-01
  0.889000  1.126040e-01
  0.890000  1.117109e-01
  0.891000  1.107326e-01
  0.892000  1.097598e-01
  0.893000  1.088746e-01
  0.894000  1.079662e-01
  0.895000  1.070442e-01
  0.896000  1.061011e-01
  0.897000  1.050947e-01
  0.898000  1.041283e-01
  0.899000  1.032446e-01
  0.900000  1.024032e-01
  0.901000  1.015222e-01
  0.902000  1.006177e-01
  0.903000  9.973793e-02
  0.904000  9.884346e-02
  0.905000  9.796143e-02
  0.906000  9.711025e-02
  0.907000  9.630644e-02
  0.908000  9.550978e-02
  0.909000  9.464290e-02
  0.910000  9.380800e-02
  0.911000  9.298459e-02
  0.912000  9.215191e-02
  0.913000  9.131593e-02
  0.914000  9.051406e-02
  0.915000  8.969304e-02
  0.916000  8.886358e-02
  0.917000  8.801323e-02
  0.918000  8.717370e-02
  0.919000  8.636944e-02
  0.920000  8.558012e-02
  0.921000  8.478590e-02
  0.922000  8.398538e-02
  0.923000  8.319167e-02
  0.924000  8.240703e-02
  0.925000  8.160004e-02
  0.926000  8.079595e-02
  0.927000  7.999179e-02
  0.928000  7.921576e-02
  0.929000  7.848953e-02
  0.930000  7.775539e-02
  0.931000  7.701428e-02
  0.932000  7.623337e-02
  0.933000  7.550045e-02
  0.934000  7.475458e-02
  0.935000  7.400787e-02
  0.936000  7.330544e-02
  0.937000  7.262875e-02
  0.938000  7.195082e-02
  0.939000  7.127191e-02
  0.940000  7.056305e-02
  0.941000  6.988177e-02
  0.942000  6.922094e-02
  0.943000  6.855899e-02
  0.944000  6.790051e-02
  0.945000  6.726093e-02
  0.946000  6.661631e-02
  0.947000  6.597741e-02
  0.948000  6.535222e-02
  0.949000  6.472981e-02
  0.950000  6.411822e-02
  0.951000  6.353013e-02
  0.952000  6.296682e-02
  0.953000  6.236495e-02
  0.954000  6.176337e-02
  0.955000  6.118362e-02
  0.956000  6.059561e-02
  0.957000  6.002847e-02
  0.958000  5.945379e-02
  0.959000  5.888893e-02
  0.960000  5.832892e-02
  0.961000  5.777281e-02
  0.962000  5.724310e-02
  0.963000  5.672796e-02
  0.964000  5.623105e-02
  0.965000  5.570695e-02
  0.966000  5.512288e-02
  0.967000  5.455237e-02
  0.968000  5.398381e-02
  0.969000  5.341657e-02
  0.970000  5.286945e-02
  0.971000  5.231933e-02
  0.972000  5.176641e-02
  0.973000  5.123713e-02
  0.974000  5.070988e-02
  0.975000  5.017715e-02
  0.976000  4.965074e-02
  0.977000  4.909028e-02
  0.978000  4.854805e-02
  0.979000  4.801809e-02
  0.980000  4.749055e-02
  0.981000  4.696173e-02
  0.982000  4.644892e-02
  0.983000  4.592430e-02
  0.984000  4.541756e-02
  0.985000  4.491595e-02
  0.986000  4.442312e-02
  0.987000  4.395093e-02
  0.988000  4.348659e-02
  0.989000  4.300893e-02
  0.990000  4.253216e-02
  0.991000  4.206519e-02
  0.992000  4.159717e-02
  0.993000  4.113467e-02
  0.994000  4.067932e-02
  0.995000  4.022652e-02
  0.996000  3.978218e-02
  0.997000  3.934669e-02
  0.998000  3.890249e-02
  0.999000  3.847609e-02
  1.000000  3.804716e-02
  1.001000  3.762986e-02
  1.002000  3.722066e-02
  1.003000  3.681096e-02
  1.004000  3.640176e-02
  1.005000  3.602527e-02
  1.006000  3.565279e-02
  1.007000  3.525955e-02
  1.008000  3.487641e-02
  1.009000  3.448718e-02
  1.010000  3.410749e-02
  1.011000  3.373457e-02
  1.012000  3.336435e-02
  1.013000  3.299501e-02
  1.014000  3.263540e-02
  1.015000  3.227333e-02
  1.016000  3.191737e-02
  1.017000  3.157583e-02
  1.018000  3.121445e-02
  1.019000  3.087283e-02
  1.020000  3.053802e-02
  1.021000  3.021875e-02
  1.022000  2.989464e-02
  1.023000  2.956996e-02
  1.024000  2.923969e-02
  1.025000  2.888607e-02
  1.026000  2.853789e-02
  1.027000  2.819425e-02
  1.028000  2.786256e-02
  1.029000  2.751962e-02
  1.030000  2.718278e-02
  1.031000  2.686543e-02
  1.032000  2.652835e-02
  1.033000  2.620321e-02
  1.034000  2.588511e-02
  1.035000  2.558808e-02
  1.036000  2.528874e-02
  1.037000  2.497806e-02
  1.038000  2.467606e-02
  1.039000  2.437181e-02
  1.040000  2.407652e-02
  1.041000  2.377728e-02
  1.042000  2.348366e-02
  1.043000  2.321407e-02
  1.044000  2.293940e-02
  1.045000  2.264710e-02
  1.046000  2.235181e-02
  1.047000  2.207482e-02
  1.048000  2.180941e-02
  1.049000  2.153526e-02
  1.050000  2.127190e-02
  1.051000  2.098331e-02
  1.052000  2.069124e-02
  1.053000  2.042541e-02
  1.054000  2.015217e-02
  1.055000  1.987813e-02
  1.056000  1.960488e-02
  1.057000  1.933675e-02
  1.058000  1.907622e-02
  1.059000  1.882219e-02
  1.060000  1.857935e-02
  1.061000  1.832199e-02
  1.062000  1.807162e-02
  1.063000  1.782442e-02
  1.064000  1.757852e-02
  1.065000  1.735068e-02
  1.066000  1.712399e-02
  1.067000  1.688446e-02
  1.068000  1.665180e-02
  1.069000  1.642781e-02
  1.070000  1.619868e-02
  1.071000  1.596433e-02
  1.072000  1.574589e-02
  1.073000  1.553649e-02
  1.074000  1.532788e-02
  1.075000  1.510275e-02
  1.076000  1.488370e-02
  1.077000  1.467469e-02
  1.078000  1.447082e-02
  1.079000  1.426174e-02
  1.080000  1.405627e-02
  1.081000  1.385016e-02
  1.082000  1.364725e-02
  1.083000  1.344651e-02
  1.084000  1.325200e-02
  1.085000  1.305799e-02
  1.086000  1.287129e-02
  1.087000  1.267961e-02
  1.088000  1.249705e-02
  1.089000  1.232480e-02
  1.090000  1.215028e-02
  1.091000  1.196845e-02
  1.092000  1.179510e-02
  1.093000  1.162113e-02
  1.094000  1.144779e-02
  1.095000  1.128052e-02
  1.096000  1.111245e-02
  1.097000  1.095377e-02
  1.098000  1.079907e-02
  1.099000  1.063797e-02
  1.100000  1.048402e-02
  1.101000  1.031002e-02
  1.102000  1.014059e-02
  1.103000  9.979904e-03
  1.104000  9.813275e-03
  1.105000  9.652312e-03
  1.106000  9.499902e-03
  1.107000  9.347049e-03
  1.108000  9.201804e-03
  1.109000  9.049937e-03
  1.110000  8.904128e-03
  1.111000  8.758894e-03
  1.112000  8.614508e-03
  1.113000  8.474400e-03
  1.114000  8.337051e-03
  1.115000  8.199560e-03
  1.116000  8.069827e-03
  1.117000  7.940185e-03
  1.118000  7.811047e-03
  1.119000  7.684573e-03
  1.120000  7.562188e-03
  1.121000  7.465265e-03
  1.122000  7.362998e-03
  1.123000  7.271011e-03
  1.124000  7.179897e-03
  1.125000  7.067247e-03
  1.126000  6.958415e-03
  1.127000  6.850075e-03
  1.128000  6.746371e-03
  1.129000  6.648470e-03
  1.130000  6.552022e-03
  1.131000  6.453582e-03
  1.132000  6.353846e-03
  1.133000  6.255249e-03
  1.134000  6.161395e-03
  1.135000  6.069287e-03
  1.136000  5.975089e-03
  1.137000  5.886345e-03
  1.138000  5.797366e-03
  1.139000  5.709071e-03
  1.140000  5.621200e-03
  1.141000  5.536946e-03
  1.142000  5.452203e-03
  1.143000  5.368461e-03
  1.144000  5.283634e-03
  1.145000  5.204582e-03
  1.146000  5.131946e-03
  1.147000  5.052371e-03
  1.148000  4.973175e-03
  1.149000  4.893917e-03
  1.150000  4.819610e-03
  1.151000  4.741103e-03
  1.152000  4.666372e-03
  1.153000  4.597109e-03
  1.154000  4.522341e-03
  1.155000  4.453429e-03
  1.156000  4.384580e-03
  1.157000  4.315134e-03
  1.158000  4.251501e-03
  1.159000  4.182461e-03
  1.160000  4.123359e-03
  1.161000  4.060223e-03
  1.162000  4.001562e-03
  1.163000  3.937069e-03
  1.164000  3.878052e-03
  1.165000  3.813986e-03
  1.166000  3.756086e-03
  1.167000  3.696946e-03
  1.168000  3.638201e-03
  1.169000  3.584500e-03
  1.170000  3.531486e-03
  1.171000  3.477930e-03
  1.172000  3.423992e-03
  1.173000  3.370030e-03
  1.174000  3.322198e-03
  1.175000  3.262586e-03
  1.176000  3.203286e-03
  1.177000  3.143646e-03
  1.178000  3.089744e-03
  1.179000  3.031412e-03
  1.180000  2.977178e-03
  1.181000  2.923528e-03
  1.182000  2.875528e-03
  1.183000  2.821323e-03
  1.184000  2.772736e-03
  1.185000  2.719088e-03
  1.186000  2.671064e-03
  1.187000  2.628132e-03
  1.188000  2.579559e-03
  1.189000  2.530712e-03
  1.190000  2.488067e-03
  1.191000  2.445005e-03
  1.192000  2.401700e-03
  1.193000  2.364558e-03
  1.194000  2.321261e-03
  1.195000  2.283835e-03
  1.196000  2.240558e-03
  1.197000  2.203112e-03
  1.198000  2.170589e-03
  1.199000  2.132701e-03
  1.200000  2.095276e-03
  1.201000  2.062513e-03
  1.202000  2.024394e-03
  1.203000  1.992087e-03
  1.204000  1.959366e-03
  1.205000  1.926449e-03
  1.206000  1.894176e-03
  1.207000  1.866661e-03
  1.208000  1.839167e-03
  1.209000  1.807089e-03
  1.210000  1.779777e-03
  1.211000  1.752415e-03
  1.212000  1.725444e-03
  1.213000  1.703466e-03
  1.214000  1.676147e-03
  1.215000  1.649210e-03
  1.216000  1.627272e-03
  1.217000  1.605348e-03
  1.218000  1.583606e-03
  1.219000  1.561843e-03
  1.220000  1.539785e-03
  1.221000  1.518083e-03
  1.222000  1.496382e-03
  1.223000  1.480039e-03
  1.224000  1.463386e-03
  1.225000  1.436192e-03
  1.226000  1.414540e-03
  1.227000  1.392752e-03
  1.228000  1.370819e-03
  1.229000  1.349055e-03
  1.230000  1.327273e-03
  1.231000  1.305751e-03
  1.232000  1.289143e-03
  1.233000  1.267494e-03
  1.234000  1.251310e-03
  1.235000  1.234742e-03
  1.236000  1.218587e-03
  1.237000  1.202045e-03
  1.238000  1.186001e-03
  1.239000  1.169496e-03
  1.240000  1.158305e-03
  1.241000  1.147383e-03
  1.242000  1.131008e-03
  1.243000  1.120110e-03
  1.244000  1.109082e-03
  1.245000  1.098159e-03
  1.246000  1.087031e-03
  1.247000  1.075927e-03
  1.248000  1.070323e-03
  1.249000  1.059332e-03
  1.250000  1.053656e-03
  1.251000  1.047870e-03
  1.252000  1.036820e-03
  1.253000  1.030854e-03
  1.254000  1.025303e-03
  1.255000  1.019338e-03
  1.256000  1.013712e-03
  1.257000  1.013132e-03
  1.258000  1.007405e-03
  1.259000  1.006841e-03
  1.260000  1.000883e-03
  1.261000  1.000354e-03
  1.262000  9.944336e-04
  1.263000  9.939078e-04
  1.264000  9.932468e-04
  1.265000  9.927202e-04
  1.266000  9.919789e-04
  1.267000  9.914317e-04
  1.268000  9.960376e-04
  1.269000  9.954863e-04
  1.270000  9.946341e-04
  1.271000  9.994542e-04
  1.272000  9.988445e-04
  1.273000  1.003435e-03
  1.274000  1.008156e-03
  1.275000  1.007322e-03
  1.276000  1.006794e-03
  1.277000  1.006063e-03
  1.278000  1.005535e-03
  1.279000  1.009908e-03
  1.280000  1.009376e-03
  1.281000  1.008574e-03
  1.282000  1.013268e-03
  1.283000  1.017654e-03
  1.284000  1.017153e-03
  1.285000  1.021839e-03
  1.286000  1.026201e-03
  1.287000  1.030875e-03
  1.288000  1.035230e-03
  1.289000  1.039777e-03
  1.290000  1.049393e-03
  1.291000  1.054001e-03
  1.292000  1.058626e-03
  1.293000  1.068152e-03
  1.294000  1.072967e-03
  1.295000  1.082374e-03
  1.296000  1.092100e-03
  1.297000  1.096566e-03
  1.298000  1.106266e-03
  1.299000  1.115958e-03
  1.300000  1.125296e-03
  1.301000  1.134852e-03
  1.302000  1.144410e-03
  1.303000  1.153690e-03
  1.304000  1.163205e-03
  1.305000  1.177722e-03
  1.306000  1.187071e-03
  1.307000  1.196543e-03
  1.308000  1.211001e-03
  1.309000  1.220177e-03
  1.310000  1.234832e-03
  1.311000  1.244112e-03
  1.312000  1.258311e-03
  1.313000  1.272890e-03
  1.314000  1.287063e-03
  1.315000  1.301190e-03
  1.316000  1.315570e-03
  1.317000  1.324729e-03
  1.318000  1.338785e-03
  1.319000  1.353109e-03
  1.320000  1.367280e-03
  1.321000  1.381494e-03
  1.322000  1.400441e-03
  1.323000  1.414445e-03
  1.324000  1.428609e-03
  1.325000  1.442258e-03
  1.326000  1.451313e-03
  1.327000  1.465378e-03
  1.328000  1.484333e-03
  1.329000  1.497872e-03
  1.330000  1.511705e-03
  1.331000  1.525878e-03
  1.332000  1.539568e-03
  1.333000  1.553208e-03
  1.334000  1.572153e-03
  1.335000  1.585901e-03
  1.336000  1.599805e-03
  1.337000  1.613183e-03
  1.338000  1.631850e-03
  1.339000  1.645495e-03
  1.340000  1.664290e-03
  1.341000  1.677802e-03
  1.342000  1.696302e-03
  1.343000  1.709956e-03
  1.344000  1.728924e-03
  1.345000  1.747118e-03
  1.346000  1.765653e-03
  1.347000  1.784343e-03
  1.348000  1.802662e-03
  1.349000  1.820924e-03
  1.350000  1.834395e-03
  1.351000  1.852901e-03
  1.352000  1.871187e-03
  1.353000  1.893969e-03
  1.354000  1.912384e-03
  1.355000  1.925476e-03
  1.356000  1.943857e-03
  1.357000  1.966685e-03
  1.358000  1.984779e-03
  1.359000  2.002837e-03
  1.360000  2.025777e-03
  1.361000  2.043358e-03
  1.362000  2.061132e-03
  1.363000  2.083765e-03
  1.364000  2.101681e-03
  1.365000  2.118895e-03
  1.366000  2.141214e-03
  1.367000  2.159277e-03
  1.368000  2.181709e-03
  1.369000  2.203622e-03
  1.370000  2.221104e-03
  1.371000  2.243794e-03
  1.372000  2.260869e-03
  1.373000  2.283243e-03
  1.374000  2.305819e-03
  1.375000  2.323277e-03
  1.376000  2.340199e-03
  1.377000  2.362419e-03
  1.378000  2.380302e-03
  1.379000  2.401936e-03
  1.380000  2.419224e-03
  1.381000  2.441825e-03
  1.382000  2.459322e-03
  1.383000  2.481073e-03
  1.384000  2.498510e-03
  1.385000  2.520981e-03
  1.386000  2.542617e-03
  1.387000  2.565050e-03
  1.388000  2.587159e-03
  1.389000  2.604155e-03
  1.390000  2.626196e-03
  1.391000  2.648177e-03
  1.392000  2.669827e-03
  1.393000  2.691736e-03
  1.394000  2.709163e-03
  1.395000  2.730420e-03
  1.396000  2.752516e-03
  1.397000  2.773941e-03
  1.398000  2.795678e-03
  1.399000  2.817378e-03
  1.400000  2.839057e-03
  1.401000  2.860455e-03
  1.402000  2.881187e-03
  1.403000  2.902499e-03
  1.404000  2.924422e-03
  1.405000  2.949756e-03
  1.406000  2.970944e-03
  1.407000  2.991456e-03
  1.408000  3.013199e-03
  1.409000  3.038651e-03
  1.410000  3.059673e-03
  1.411000  3.080135e-03
  1.412000  3.101580e-03
  1.413000  3.122950e-03
  1.414000  3.147975e-03
  1.415000  3.169312e-03
  1.416000  3.189852e-03
  1.417000  3.211073e-03
  1.418000  3.231618e-03
  1.419000  3.252438e-03
  1.420000  3.277576e-03
  1.421000  3.298452e-03
  1.422000  3.319220e-03
  1.423000  3.340420e-03
  1.424000  3.365123e-03
  1.425000  3.386254e-03
  1.426000  3.410864e-03
  1.427000  3.432282e-03
  1.428000  3.457118e-03
  1.429000  3.478113e-03
  1.430000  3.497907e-03
  1.431000  3.518880e-03
  1.432000  3.539006e-03
  1.433000  3.564094e-03
  1.434000  3.589150e-03
  1.435000  3.609215e-03
  1.436000  3.624969e-03
  1.437000  3.650288e-03
  1.438000  3.671031e-03
  1.439000  3.690508e-03
  1.440000  3.711184e-03
  1.441000  3.734970e-03
  1.442000  3.759889e-03
  1.443000  3.780254e-03
  1.444000  3.799317e-03
  1.445000  3.824193e-03
  1.446000  3.843984e-03
  1.447000  3.869188e-03
  1.448000  3.888078e-03
  1.449000  3.912325e-03
  1.450000  3.932451e-03
  1.451000  3.951670e-03
  1.452000  3.975772e-03
  1.453000  3.995696e-03
  1.454000  4.014804e-03
  1.455000  4.040390e-03
  1.456000  4.065629e-03
  1.457000  4.085579e-03
  1.458000  4.104166e-03
  1.459000  4.125500e-03
  1.460000  4.147440e-03
  1.461000  4.168337e-03
  1.462000  4.189908e-03
  1.463000  4.213496e-03
  1.464000  4.232535e-03
  1.465000  4.258555e-03
  1.466000  4.279468e-03
  1.467000  4.301113e-03
  1.468000  4.317522e-03
  1.469000  4.340585e-03
  1.470000  4.359836e-03
  1.471000  4.383132e-03
  1.472000  4.402000e-03
  1.473000  4.420737e-03
  1.474000  4.439535e-03
  1.475000  4.458320e-03
  1.476000  4.481521e-03
  1.477000  4.499889e-03
  1.478000  4.523351e-03
  1.479000  4.544621e-03
  1.480000  4.565201e-03
  1.481000  4.585972e-03
  1.482000  4.602242e-03
  1.483000  4.627522e-03
  1.484000  4.648491e-03
  1.485000  4.664888e-03
  1.486000  4.685116e-03
  1.487000  4.707598e-03
  1.488000  4.730829e-03
  1.489000  4.749166e-03
  1.490000  4.767560e-03
  1.491000  4.785915e-03
  1.492000  4.804229e-03
  1.493000  4.826919e-03
  1.494000  4.845168e-03
  1.495000  4.863448e-03
  1.496000  4.881645e-03
  1.497000  4.903882e-03
  1.498000  4.926782e-03
  1.499000  4.947508e-03
  1.500000  4.972576e-03
  1.501000  4.991032e-03
  1.502000  5.008725e-03
  1.503000  5.026749e-03
  1.504000  5.044811e-03
  1.505000  5.062796e-03
  1.506000  5.085177e-03
  1.507000  5.107526e-03
  1.508000  5.125466e-03
  1.509000  5.147741e-03
  1.510000  5.165716e-03
  1.511000  5.188314e-03
  1.512000  5.205777e-03
  1.513000  5.216247e-03
  1.514000  5.231797e-03
  1.515000  5.256177e-03
  1.516000  5.281418e-03
  1.517000  5.303981e-03
  1.518000  5.321294e-03
  1.519000  5.334318e-03
  1.520000  5.352448e-03
  1.521000  5.373322e-03
  1.522000  5.397592e-03
  1.523000  5.413019e-03
  1.524000  5.427456e-03
  1.525000  5.449048e-03
  1.526000  5.471383e-03
  1.527000  5.488495e-03
  1.528000  5.502251e-03
  1.529000  5.522589e-03
  1.530000  5.547313e-03
  1.531000  5.561359e-03
  1.532000  5.578123e-03
  1.533000  5.592698e-03
  1.534000  5.607404e-03
  1.535000  5.628762e-03
  1.536000  5.650852e-03
  1.537000  5.667887e-03
  1.538000  5.681466e-03
  1.539000  5.702134e-03
  1.540000  5.726300e-03
  1.541000  5.745437e-03
  1.542000  5.759369e-03
  1.543000  5.775853e-03
  1.544000  5.789803e-03
  1.545000  5.810026e-03
  1.546000  5.834507e-03
  1.547000  5.852245e-03
  1.548000  5.869030e-03
  1.549000  5.886736e-03
  1.550000  5.903469e-03
  1.551000  5.917220e-03
  1.552000  5.931827e-03
  1.553000  5.955719e-03
  1.554000  5.980623e-03
  1.555000  5.997708e-03
  1.556000  6.014851e-03
  1.557000  6.030753e-03
  1.558000  6.050977e-03
  1.559000  6.068965e-03
  1.560000  6.085119e-03
  1.561000  6.098621e-03
  1.562000  6.113007e-03
  1.563000  6.132719e-03
  1.564000  6.153281e-03
  1.565000  6.167109e-03
  1.566000  6.178927e-03
  1.567000  6.192349e-03
  1.568000  6.206599e-03
  1.569000  6.226276e-03
  1.570000  6.247030e-03
  1.571000  6.264375e-03
  1.572000  6.280893e-03
  1.573000  6.297805e-03
  1.574000  6.310608e-03
  1.575000  6.327504e-03
  1.576000  6.344443e-03
  1.577000  6.365995e-03
  1.578000  6.386602e-03
  1.579000  6.396095e-03
  1.580000  6.405534e-03
  1.581000  6.421345e-03
  1.582000  6.439182e-03
  1.583000  6.459353e-03
  1.584000  6.475293e-03
  1.585000  6.488559e-03
  1.586000  6.500703e-03
  1.587000  6.517646e-03
  1.588000  6.534413e-03
  1.589000  6.550752e-03
  1.590000  6.563963e-03
  1.591000  6.588231e-03
  1.592000  6.612565e-03
  1.593000  6.625830e-03
  1.594000  6.633834e-03
  1.595000  6.650609e-03
  1.596000  6.667477e-03
  1.597000  6.680026e-03
  1.598000  6.696870e-03
  1.599000  6.713615e-03
  1.600000  6.726240e-03
  1.601000  6.743504e-03
  1.602000  6.759781e-03
  1.603000  6.768327e-03
  1.604000  6.782183e-03
  1.605000  6.797821e-03
  1.606000  6.818477e-03
  1.607000  6.835732e-03
  1.608000  6.847838e-03
  1.609000  6.864063e-03
  1.610000  6.877197e-03
  1.611000  6.897426e-03
  1.612000  6.913599e-03
  1.613000  6.930956e-03
  1.614000  6.943049e-03
  1.615000  6.960309e-03
  1.616000  6.972481e-03
  1.617000  6.980938e-03
  1.618000  6.986513e-03
  1.619000  7.002185e-03
  1.620000  7.023031e-03
  1.621000  7.036220e-03
  1.622000  7.052498e-03
  1.623000  7.069273e-03
  1.624000  7.086050e-03
  1.625000  7.098659e-03
  1.626000  7.107301e-03
  1.627000  7.120005e-03
  1.628000  7.136785e-03
  1.629000  7.149475e-03
  1.630000  7.166265e-03
  1.631000  7.179045e-03
  1.632000  7.191727e-03
  1.633000  7.208509e-03
  1.634000  7.221191e-03
  1.635000  7.229886e-03
  1.636000  7.242578e-03
  1.637000  7.259367e-03
  1.638000  7.276068e-03
  1.639000  7.284811e-03
  1.640000  7.297695e-03
  1.641000  7.313798e-03
  1.642000  7.331227e-03
  1.643000  7.343660e-03
  1.644000  7.356179e-03
  1.645000  7.373508e-03
  1.646000  7.393880e-03
  1.647000  7.403166e-03
  1.648000  7.411449e-03
  1.649000  7.415857e-03
  1.650000  7.421396e-03
  1.651000  7.441479e-03
  1.652000  7.462669e-03
  1.653000  7.476120e-03
  1.654000  7.488336e-03
  1.655000  7.501271e-03
  1.656000  7.514048e-03
  1.657000  7.527030e-03
  1.658000  7.539963e-03
  1.659000  7.552213e-03
  1.660000  7.565689e-03
  1.661000  7.583048e-03
  1.662000  7.599253e-03
  1.663000  7.608293e-03
  1.664000  7.617333e-03
  1.665000  7.634119e-03
  1.666000  7.651111e-03
  1.667000  7.660133e-03
  1.668000  7.665181e-03
  1.669000  7.682015e-03
  1.670000  7.699010e-03
  1.671000  7.708002e-03
  1.672000  7.717052e-03
  1.673000  7.732826e-03
  1.674000  7.747036e-03
  1.675000  7.765335e-03
  1.676000  7.781053e-03
  1.677000  7.786801e-03
  1.678000  7.791228e-03
  1.679000  7.799816e-03
  1.680000  7.813434e-03
  1.681000  7.826591e-03
  1.682000  7.839524e-03
  1.683000  7.852701e-03
  1.684000  7.861933e-03
  1.685000  7.874997e-03
  1.686000  7.888213e-03
  1.687000  7.897348e-03
  1.688000  7.902647e-03
  1.689000  7.919716e-03
  1.690000  7.936814e-03
  1.691000  7.949966e-03
  1.692000  7.959275e-03
  1.693000  7.968571e-03
  1.694000  7.973845e-03
  1.695000  7.987123e-03
  1.696000  8.000337e-03
  1.697000  8.009559e-03
  1.698000  8.022822e-03
  1.699000  8.032163e-03
  1.700000  8.045439e-03
  1.701000  8.054157e-03
  1.702000  8.068078e-03
  1.703000  8.085479e-03
  1.704000  8.099105e-03
  1.705000  8.112975e-03
  1.706000  8.121791e-03
  1.707000  8.135079e-03
  1.708000  8.144532e-03
  1.709000  8.157852e-03
  1.710000  8.167425e-03
  1.711000  8.176187e-03
  1.712000  8.190279e-03
  1.713000  8.204458e-03
  1.714000  8.221558e-03
  1.715000  8.227408e-03
  1.716000  8.232100e-03
  1.717000  8.244217e-03
  1.718000  8.254999e-03
  1.719000  8.268814e-03
  1.720000  8.286585e-03
  1.721000  8.296808e-03
  1.722000  8.305563e-03
  1.723000  8.319133e-03
  1.724000  8.328673e-03
  1.725000  8.338235e-03
  1.726000  8.351589e-03
  1.727000  8.361153e-03
  1.728000  8.370750e-03
  1.729000  8.380248e-03
  1.730000  8.393779e-03
  1.731000  8.403310e-03
  1.732000  8.412951e-03
  1.733000  8.418586e-03
  1.734000  8.424200e-03
  1.735000  8.433801e-03
  1.736000  8.447450e-03
  1.737000  8.457155e-03
  1.738000  8.466690e-03
  1.739000  8.476415e-03
  1.740000  8.485991e-03
  1.741000  8.495731e-03
  1.742000  8.505484e-03
  1.743000  8.515138e-03
  1.744000  8.524911e-03
  1.745000  8.534655e-03
  1.746000  8.544474e-03
  1.747000  8.554197e-03
  1.748000  8.564049e-03
  1.749000  8.573807e-03
  1.750000  8.583681e-03
  1.751000  8.593621e-03
  1.752000  8.603391e-03
  1.753000  8.605540e-03
  1.754000  8.611691e-03
  1.755000  8.625523e-03
  1.756000  8.639494e-03
  1.757000  8.648788e-03
  1.758000  8.659530e-03
  1.759000  8.673997e-03
  1.760000  8.684734e-03
  1.761000  8.695326e-03
  1.762000  8.704978e-03
  1.763000  8.715212e-03
  1.764000  8.721414e-03
  1.765000  8.731654e-03
  1.766000  8.741821e-03
  1.767000  8.748211e-03
  1.768000  8.758537e-03
  1.769000  8.768872e-03
  1.770000  8.775185e-03
  1.771000  8.785712e-03
  1.772000  8.796086e-03
  1.773000  8.802654e-03
  1.774000  8.813193e-03
  1.775000  8.823703e-03
  1.776000  8.830384e-03
  1.777000  8.836328e-03
  1.778000  8.840021e-03
  1.779000  8.859722e-03
  1.780000  8.878295e-03
  1.781000  8.877368e-03
  1.782000  8.878912e-03
  1.783000  8.892962e-03
  1.784000  8.904394e-03
  1.785000  8.911388e-03
  1.786000  8.914383e-03
  1.787000  8.925316e-03
  1.788000  8.936141e-03
  1.789000  8.943314e-03
  1.790000  8.954144e-03
  1.791000  8.961154e-03
  1.792000  8.972042e-03
  1.793000  8.983145e-03
  1.794000  8.990171e-03
  1.795000  9.001196e-03
  1.796000  9.008248e-03
  1.797000  9.019345e-03
  1.798000  9.026561e-03
  1.799000  9.037567e-03
  1.800000  9.044684e-03
  1.801000  9.055013e-03
  1.802000  9.063075e-03
  1.803000  9.079495e-03
  1.804000  9.090723e-03
  1.805000  9.097119e-03
  1.806000  9.099806e-03
  1.807000  9.115584e-03
  1.808000  9.127572e-03
  1.809000  9.134013e-03
  1.810000  9.136476e-03
  1.811000  9.147581e-03
  1.812000  9.163910e-03
  1.813000  9.171788e-03
  1.814000  9.178258e-03
  1.815000  9.185453e-03
  1.816000  9.188758e-03
  1.817000  9.195751e-03
  1.818000  9.202964e-03
  1.819000  9.213919e-03
  1.820000  9.221038e-03
  1.821000  9.228293e-03
  1.822000  9.239331e-03
  1.823000  9.250376e-03
  1.824000  9.261526e-03
  1.825000  9.272463e-03
  1.826000  9.279714e-03
  1.827000  9.286966e-03
  1.828000  9.297989e-03
  1.829000  9.305294e-03
  1.830000  9.312492e-03
  1.831000  9.315783e-03
  1.832000  9.319311e-03
  1.833000  9.326645e-03
  1.834000  9.337747e-03
  1.835000  9.348961e-03
  1.836000  9.360138e-03
  1.837000  9.371406e-03
  1.838000  9.374858e-03
  1.839000  9.385556e-03
  1.840000  9.393559e-03
  1.841000  9.405974e-03
  1.842000  9.418300e-03
  1.843000  9.426544e-03
  1.844000  9.433343e-03
  1.845000  9.433057e-03
  1.846000  9.436805e-03
  1.847000  9.445008e-03
  1.848000  9.452058e-03
  1.849000  9.454838e-03
  1.850000  9.457584e-03
  1.851000  9.464651e-03
  1.852000  9.473132e-03
  1.853000  9.481059e-03
  1.854000  9.488952e-03
  1.855000  9.492236e-03
  1.856000  9.500831e-03
  1.857000  9.513722e-03
  1.858000  9.526628e-03
  1.859000  9.536231e-03
  1.860000  9.542852e-03
  1.861000  9.542296e-03
  1.862000  9.545667e-03
  1.863000  9.553141e-03
  1.864000  9.562286e-03
  1.865000  9.570639e-03
  1.866000  9.575135e-03
  1.867000  9.583537e-03
  1.868000  9.592007e-03
  1.869000  9.603659e-03
  1.870000  9.616693e-03
  1.871000  9.622421e-03
  1.872000  9.632102e-03
  1.873000  9.645206e-03
  1.874000  9.657029e-03
  1.875000  9.665736e-03
  1.876000  9.670432e-03
  1.877000  9.679131e-03
  1.878000  9.687752e-03
  1.879000  9.688735e-03
  1.880000  9.693540e-03
  1.881000  9.698461e-03
  1.882000  9.707163e-03
  1.883000  9.715843e-03
  1.884000  9.724755e-03
  1.885000  9.729655e-03
  1.886000  9.738424e-03
  1.887000  9.751121e-03
  1.888000  9.763833e-03
  1.889000  9.772558e-03
  1.890000  9.777484e-03
  1.891000  9.782371e-03
  1.892000  9.783512e-03
  1.893000  9.789212e-03
  1.894000  9.797361e-03
  1.895000  9.800373e-03
  1.896000  9.800835e-03
  1.897000  9.818580e-03
  1.898000  9.836332e-03
  1.899000  9.840792e-03
  1.900000  9.839741e-03
  1.901000  9.847964e-03
  1.902000  9.853641e-03
  1.903000  9.857751e-03
  1.904000  9.859570e-03
  1.905000  9.869580e-03
  1.906000  9.883507e-03
  1.907000  9.889156e-03
  1.908000  9.897273e-03
  1.909000  9.902241e-03
  1.910000  9.911191e-03
  1.911000  9.916885e-03
  1.912000  9.924937e-03
  1.913000  9.924744e-03
  1.914000  9.924602e-03
  1.915000  9.931924e-03
  1.916000  9.938506e-03
  1.917000  9.948622e-03
  1.918000  9.962580e-03
  1.919000  9.968552e-03
  1.920000  9.972607e-03
  1.921000  9.982493e-03
  1.922000  9.986583e-03
  1.923000  9.986586e-03
  1.924000  9.990379e-03
  1.925000  1.000242e-02
  1.926000  1.001211e-02
  1.927000  1.001268e-02
  1.928000  1.001471e-02
  1.929000  1.002477e-02
  1.930000  1.003907e-02
  1.931000  1.004480e-02
  1.932000  1.004935e-02
  1.933000  1.005436e-02
  1.934000  1.006340e-02
  1.935000  1.006869e-02
  1.936000  1.007388e-02
  1.937000  1.007904e-02
  1.938000  1.008809e-02
  1.939000  1.009348e-02
  1.940000  1.009866e-02
  1.941000  1.010387e-02
  1.942000  1.010912e-02
  1.943000  1.012221e-02
  1.944000  1.013142e-02
  1.945000  1.014089e-02
  1.946000  1.014618e-02
  1.947000  1.015151e-02
  1.948000  1.015685e-02
  1.949000  1.016299e-02
  1.950000  1.016759e-02
  1.951000  1.016711e-02
  1.952000  1.016809e-02
  1.953000  1.017814e-02
  1.954000  1.018960e-02
  1.955000  1.019599e-02
  1.956000  1.020076e-02
  1.957000  1.020625e-02
  1.958000  1.021574e-02
  1.959000  1.022121e-02
  1.960000  1.022684e-02
  1.961000  1.023236e-02
  1.962000  1.023801e-02
  1.963000  1.024371e-02
  1.964000  1.024929e-02
  1.965000  1.025499e-02
  1.966000  1.026059e-02
  1.967000  1.026300e-02
  1.968000  1.026786e-02
  1.969000  1.026833e-02
  1.970000  1.026855e-02
  1.971000  1.027357e-02
  1.972000  1.027994e-02
  1.973000  1.030141e-02
  1.974000  1.032277e-02
  1.975000  1.033642e-02
  1.976000  1.034207e-02
  1.977000  1.034770e-02
  1.978000  1.034946e-02
  1.979000  1.035119e-02
  1.980000  1.035695e-02
  1.981000  1.036268e-02
  1.982000  1.036839e-02
  1.983000  1.037417e-02
  1.984000  1.037994e-02
  1.985000  1.038572e-02
  1.986000  1.039153e-02
  1.987000  1.039339e-02
  1.988000  1.039902e-02
  1.989000  1.040493e-02
  1.990000  1.041078e-02
  1.991000  1.041648e-02
  1.992000  1.042214e-02
  1.993000  1.042808e-02
  1.994000  1.043379e-02
  1.995000  1.043562e-02
  1.996000  1.044153e-02
  1.997000  1.044961e-02
  1.998000  1.045318e-02
  1.999000  1.044417e-02
  2.000000  1.043240e-02
  2.001000  1.044053e-02
  2.002000  1.044273e-02
  2.003000  1.044887e-02
  2.004000  1.045499e-02
  2.005000  1.046114e-02
  2.006000  1.046599e-02
  2.007000  1.046819e-02
  2.008000  1.047433e-02
  2.009000  1.048048e-02
  2.010000  1.048533e-02
  2.011000  1.049129e-02
  2.012000  1.049330e-02
  2.013000  1.049927e-02
  2.014000  1.050394e-02
  2.015000  1.050991e-02
  2.016000  1.051192e-02
  2.017000  1.051789e-02
  2.018000  1.052386e-02
  2.019000  1.052853e-02
  2.020000  1.053450e-02
  2.021000  1.054050e-02
  2.022000  1.055045e-02
  2.023000  1.055515e-02
  2.024000  1.056115e-02
  2.025000  1.056320e-02
  2.026000  1.056524e-02
  2.027000  1.056728e-02
  2.028000  1.056803e-02
  2.029000  1.057403e-02
  2.030000  1.058003e-02
  2.031000  1.058622e-02
  2.032000  1.059242e-02
  2.033000  1.060128e-02
  2.034000  1.060746e-02
  2.035000  1.061367e-02
  2.036000  1.061987e-02
  2.037000  1.062209e-02
  2.038000  1.062700e-02
  2.039000  1.062924e-02
  2.040000  1.063543e-02
  2.041000  1.063743e-02
  2.042000  1.064338e-02
  2.043000  1.064935e-02
  2.044000  1.065004e-02
  2.045000  1.065601e-02
  2.046000  1.065800e-02
  2.047000  1.066397e-02
  2.048000  1.066596e-02
  2.049000  1.067063e-02
  2.050000  1.067262e-02
  2.051000  1.067895e-02
  2.052000  1.068129e-02
  2.053000  1.068760e-02
  2.054000  1.068995e-02
  2.055000  1.069497e-02
  2.056000  1.069731e-02
  2.057000  1.070364e-02
  2.058000  1.070599e-02
  2.059000  1.071231e-02
  2.060000  1.071466e-02
  2.061000  1.071631e-02
  2.062000  1.072064e-02
  2.063000  1.072228e-02
  2.064000  1.072792e-02
  2.065000  1.073355e-02
  2.066000  1.073919e-02
  2.067000  1.074482e-02
  2.068000  1.075047e-02
  2.069000  1.075479e-02
  2.070000  1.075645e-02
  2.071000  1.076257e-02
  2.072000  1.076471e-02
  2.073000  1.076685e-02
  2.074000  1.076899e-02
  2.075000  1.077511e-02
  2.076000  1.077725e-02
  2.077000  1.077808e-02
  2.078000  1.078421e-02
  2.079000  1.078635e-02
  2.080000  1.078847e-02
  2.081000  1.079540e-02
  2.082000  1.079834e-02
  2.083000  1.080127e-02
  2.084000  1.080821e-02
  2.085000  1.081115e-02
  2.086000  1.081279e-02
  2.087000  1.081972e-02
  2.088000  1.082266e-02
  2.089000  1.082561e-02
  2.090000  1.082854e-02
  2.091000  1.083617e-02
  2.092000  1.083979e-02
  2.093000  1.084340e-02
  2.094000  1.084702e-02
  2.095000  1.085466e-02
  2.096000  1.085828e-02
  2.097000  1.086059e-02
  2.098000  1.086421e-02
  2.099000  1.087186e-02
  2.100000  1.087548e-02
  2.101000  1.088339e-02
  2.102000  1.089131e-02
  2.103000  1.089924e-02
  2.104000  1.090314e-02
  2.105000  1.091106e-02
  2.106000  1.091497e-02
  2.107000  1.091887e-02
  2.108000  1.092278e-02
  2.109000  1.092668e-02
  2.110000  1.093058e-02
  2.111000  1.093492e-02
  2.112000  1.093924e-02
  2.113000  1.094357e-02
  2.114000  1.094658e-02
  2.115000  1.095496e-02
  2.116000  1.095929e-02
  2.117000  1.096362e-02
  2.118000  1.096795e-02
  2.119000  1.097229e-02
  2.120000  1.097662e-02
  2.121000  1.097662e-02
  2.122000  1.098354e-02
  2.123000  1.098935e-02
  2.124000  1.099292e-02
  2.125000  1.099874e-02
  2.126000  1.100456e-02
  2.127000  1.101149e-02
  2.128000  1.101507e-02
  2.129000  1.102089e-02
  2.130000  1.102672e-02
  2.131000  1.103165e-02
  2.132000  1.103883e-02
  2.133000  1.104378e-02
  2.134000  1.105096e-02
  2.135000  1.105590e-02
  2.136000  1.106424e-02
  2.137000  1.106918e-02
  2.138000  1.107638e-02
  2.139000  1.108133e-02
  2.140000  1.109038e-02
  2.141000  1.109665e-02
  2.142000  1.110477e-02
  2.143000  1.110880e-02
  2.144000  1.111692e-02
  2.145000  1.112322e-02
  2.146000  1.112726e-02
  2.147000  1.113130e-02
  2.148000  1.113421e-02
  2.149000  1.113546e-02
  2.150000  1.114177e-02
  2.151000  1.114457e-02
  2.152000  1.114737e-02
  2.153000  1.115016e-02
  2.154000  1.115296e-02
  2.155000  1.115576e-02
  2.156000  1.115444e-02
  2.157000  1.115724e-02
  2.158000  1.116004e-02
  2.159000  1.116170e-02
  2.160000  1.116450e-02
  2.161000  1.116405e-02
  2.162000  1.116772e-02
  2.163000  1.117139e-02
  2.164000  1.117279e-02
  2.165000  1.117366e-02
  2.166000  1.117620e-02
  2.167000  1.117986e-02
  2.168000  1.118353e-02
  2.169000  1.118721e-02
  2.170000  1.118675e-02
  2.171000  1.118772e-02
  2.172000  1.119095e-02
  2.173000  1.118892e-02
  2.174000  1.119215e-02
  2.175000  1.120085e-02
  2.176000  1.120180e-02
  2.177000  1.120917e-02
  2.178000  1.121128e-02
  2.179000  1.121452e-02
  2.180000  1.121547e-02
  2.181000  1.121839e-02
  2.182000  1.122132e-02
  2.183000  1.122557e-02
  2.184000  1.122505e-02
  2.185000  1.122798e-02
  2.186000  1.123090e-02
  2.187000  1.123382e-02
  2.188000  1.123448e-02
  2.189000  1.123740e-02
  2.190000  1.124051e-02
  2.191000  1.124389e-02
  2.192000  1.124728e-02
  2.193000  1.124837e-02
  2.194000  1.125177e-02
  2.195000  1.125515e-02
  2.196000  1.125873e-02
  2.197000  1.125982e-02
  2.198000  1.126320e-02
  2.199000  1.126659e-02
  2.200000  1.126999e-02
  2.201000  1.127415e-02
  2.202000  1.127698e-02
  2.203000  1.127983e-02
  2.204000  1.127851e-02
  2.205000  1.128134e-02
  2.206000  1.128648e-02
  2.207000  1.129065e-02
  2.208000  1.129348e-02
  2.209000  1.129633e-02
  2.210000  1.129917e-02
  2.211000  1.130179e-02
  2.212000  1.130308e-02
  2.213000  1.130437e-02
  2.214000  1.130567e-02
  2.215000  1.130696e-02
  2.216000  1.130769e-02
  2.217000  1.130898e-02
  2.218000  1.130610e-02
  2.219000  1.130321e-02
  2.220000  1.130449e-02
  2.221000  1.130421e-02
  2.222000  1.130260e-02
  2.223000  1.130100e-02
  2.224000  1.130357e-02
  2.225000  1.130327e-02
  2.226000  1.130167e-02
  2.227000  1.130005e-02
  2.228000  1.130263e-02
  2.229000  1.130232e-02
  2.230000  1.130070e-02
  2.231000  1.129917e-02
  2.232000  1.130184e-02
  2.233000  1.130163e-02
  2.234000  1.130010e-02
  2.235000  1.130276e-02
  2.236000  1.130123e-02
  2.237000  1.130101e-02
  2.238000  1.130366e-02
  2.239000  1.130442e-02
  2.240000  1.130840e-02
  2.241000  1.131076e-02
  2.242000  1.131733e-02
  2.243000  1.131969e-02
  2.244000  1.132453e-02
  2.245000  1.132689e-02
  2.246000  1.132505e-02
  2.247000  1.132741e-02
  2.248000  1.133109e-02
  2.249000  1.132925e-02
  2.250000  1.133161e-02
  2.251000  1.133596e-02
  2.252000  1.133478e-02
  2.253000  1.133781e-02
  2.254000  1.134084e-02
  2.255000  1.134519e-02
  2.256000  1.134400e-02
  2.257000  1.134472e-02
  2.258000  1.134908e-02
  2.259000  1.135211e-02
  2.260000  1.135092e-02
  2.261000  1.135544e-02
  2.262000  1.135864e-02
  2.263000  1.136185e-02
  2.264000  1.136083e-02
  2.265000  1.136536e-02
  2.266000  1.136857e-02
  2.267000  1.137178e-02
  2.268000  1.137207e-02
  2.269000  1.137528e-02
  2.270000  1.137849e-02
  2.271000  1.138280e-02
  2.272000  1.138158e-02
  2.273000  1.138459e-02
  2.274000  1.138892e-02
  2.275000  1.138769e-02
  2.276000  1.139069e-02
  2.277000  1.138947e-02
  2.278000  1.139378e-02
  2.279000  1.139680e-02
  2.280000  1.139980e-02
  2.281000  1.140466e-02
  2.282000  1.140820e-02
  2.283000  1.141716e-02
  2.284000  1.142203e-02
  2.285000  1.142132e-02
  2.286000  1.142485e-02
  2.287000  1.142777e-02
  2.288000  1.143132e-02
  2.289000  1.143061e-02
  2.290000  1.143547e-02
  2.291000  1.143390e-02
  2.292000  1.143659e-02
  2.293000  1.143503e-02
  2.294000  1.143903e-02
  2.295000  1.143745e-02
  2.296000  1.144014e-02
  2.297000  1.143989e-02
  2.298000  1.144258e-02
  2.299000  1.144099e-02
  2.300000  1.144500e-02
  2.301000  1.144294e-02
  2.302000  1.144514e-02
  2.303000  1.144555e-02
  2.304000  1.145009e-02
  2.305000  1.144801e-02
  2.306000  1.145153e-02
  2.307000  1.144945e-02
  2.308000  1.145165e-02
  2.309000  1.144957e-02
  2.310000  1.145542e-02
  2.311000  1.145710e-02
  2.312000  1.145878e-02
  2.313000  1.146179e-02
  2.314000  1.146347e-02
  2.315000  1.146631e-02
  2.316000  1.146734e-02
  2.317000  1.146903e-02
  2.318000  1.146641e-02
  2.319000  1.146511e-02
  2.320000  1.146680e-02
  2.321000  1.146315e-02
  2.322000  1.146184e-02
  2.323000  1.146381e-02
  2.324000  1.146016e-02
  2.325000  1.146198e-02
  2.326000  1.145963e-02
  2.327000  1.146262e-02
  2.328000  1.145897e-02
  2.329000  1.145663e-02
  2.330000  1.145727e-02
  2.331000  1.145465e-02
  2.332000  1.145865e-02
  2.333000  1.145733e-02
  2.334000  1.145899e-02
  2.335000  1.145752e-02
  2.336000  1.145619e-02
  2.337000  1.146019e-02
  2.338000  1.145756e-02
  2.339000  1.145922e-02
  2.340000  1.145788e-02
  2.341000  1.145996e-02
  2.342000  1.146006e-02
  2.343000  1.146344e-02
  2.344000  1.146120e-02
  2.345000  1.146013e-02
  2.346000  1.146454e-02
  2.347000  1.146360e-02
  2.348000  1.146568e-02
  2.349000  1.146343e-02
  2.350000  1.146551e-02
  2.351000  1.147124e-02
  2.352000  1.147335e-02
  2.353000  1.147547e-02
  2.354000  1.148003e-02
  2.355000  1.147780e-02
  2.356000  1.148225e-02
  2.357000  1.148003e-02
  2.358000  1.148343e-02
  2.359000  1.148120e-02
  2.360000  1.147897e-02
  2.361000  1.148330e-02
  2.362000  1.148223e-02
  2.363000  1.147985e-02
  2.364000  1.148299e-02
  2.365000  1.148063e-02
  2.366000  1.148059e-02
  2.367000  1.148386e-02
  2.368000  1.148148e-02
  2.369000  1.147910e-02
  2.370000  1.148107e-02
  2.371000  1.147965e-02
  2.372000  1.147927e-02
  2.373000  1.148089e-02
  2.374000  1.147817e-02
  2.375000  1.147791e-02
  2.376000  1.147953e-02
  2.377000  1.147914e-02
  2.378000  1.147641e-02
  2.379000  1.147804e-02
  2.380000  1.147659e-02
  2.381000  1.147424e-02
  2.382000  1.147190e-02
  2.383000  1.147624e-02
  2.384000  1.147389e-02
  2.385000  1.147283e-02
  2.386000  1.147048e-02
  2.387000  1.146811e-02
  2.388000  1.147128e-02
  2.389000  1.146893e-02
  2.390000  1.147326e-02
  2.391000  1.147297e-02
  2.392000  1.147577e-02
  2.393000  1.147857e-02
  2.394000  1.147699e-02
  2.395000  1.147978e-02
  2.396000  1.147821e-02
  2.397000  1.147791e-02
  2.398000  1.147632e-02
  2.399000  1.147706e-02
  2.400000  1.147548e-02
  2.401000  1.147720e-02
  2.402000  1.147454e-02
  2.403000  1.147188e-02
  2.404000  1.147050e-02
  2.405000  1.146783e-02
  2.406000  1.146516e-02
  2.407000  1.146688e-02
  2.408000  1.146420e-02
  2.409000  1.146270e-02
  2.410000  1.146236e-02
  2.411000  1.146058e-02
  2.412000  1.145881e-02
  2.413000  1.145830e-02
  2.414000  1.146090e-02
  2.415000  1.145911e-02
  2.416000  1.145733e-02
  2.417000  1.145554e-02
  2.418000  1.145374e-02
  2.419000  1.145194e-02
  2.420000  1.145455e-02
  2.421000  1.145386e-02
  2.422000  1.145318e-02
  2.423000  1.145249e-02
  2.424000  1.145181e-02
  2.425000  1.145551e-02
  2.426000  1.145609e-02
  2.427000  1.145772e-02
  2.428000  1.145703e-02
  2.429000  1.145633e-02
  2.430000  1.146004e-02
  2.431000  1.146048e-02
  2.432000  1.146092e-02
  2.433000  1.146136e-02
  2.434000  1.146179e-02
  2.435000  1.146665e-02
  2.436000  1.146707e-02
  2.437000  1.146750e-02
  2.438000  1.146792e-02
  2.439000  1.146834e-02
  2.440000  1.147320e-02
  2.441000  1.147375e-02
  2.442000  1.147432e-02
  2.443000  1.147488e-02
  2.444000  1.147543e-02
  2.445000  1.147599e-02
  2.446000  1.148098e-02
  2.447000  1.148153e-02
  2.448000  1.147965e-02
  2.449000  1.148019e-02
  2.450000  1.148074e-02
  2.451000  1.148102e-02
  2.452000  1.148132e-02
  2.453000  1.148372e-02
  2.454000  1.148401e-02
  2.455000  1.148430e-02
  2.456000  1.148904e-02
  2.457000  1.149378e-02
  2.458000  1.149852e-02
  2.459000  1.149880e-02
  2.460000  1.149907e-02
  2.461000  1.150097e-02
  2.462000  1.149965e-02
  2.463000  1.149834e-02
  2.464000  1.149703e-02
  2.465000  1.149570e-02
  2.466000  1.149438e-02
  2.467000  1.149306e-02
  2.468000  1.149174e-02
  2.469000  1.148681e-02
  2.470000  1.148996e-02
  2.471000  1.148949e-02
  2.472000  1.148902e-02
  2.473000  1.148854e-02
  2.474000  1.148807e-02
  2.475000  1.148516e-02
  2.476000  1.148468e-02
  2.477000  1.148420e-02
  2.478000  1.148371e-02
  2.479000  1.148538e-02
  2.480000  1.148363e-02
  2.481000  1.148304e-02
  2.482000  1.148245e-02
  2.483000  1.148185e-02
  2.484000  1.148127e-02
  2.485000  1.147941e-02
  2.486000  1.147881e-02
  2.487000  1.147589e-02
  2.488000  1.147978e-02
  2.489000  1.147792e-02
  2.490000  1.147731e-02
  2.491000  1.147563e-02
  2.492000  1.147278e-02
  2.493000  1.146751e-02
  2.494000  1.146582e-02
  2.495000  1.146413e-02
  2.496000  1.146119e-02
  2.497000  1.145950e-02
  2.498000  1.146231e-02
  2.499000  1.145829e-02
  2.500000  1.145534e-02
  2.501000  1.145294e-02
  2.502000  1.145056e-02
  2.503000  1.144692e-02
  2.504000  1.144220e-02
  2.505000  1.143981e-02
  2.506000  1.143501e-02
  2.507000  1.143260e-02
  2.508000  1.142788e-02
  2.509000  1.142876e-02
  2.510000  1.142635e-02
  2.511000  1.142890e-02
  2.512000  1.142785e-02
  2.513000  1.142586e-02
  2.514000  1.142715e-02
  2.515000  1.142516e-02
  2.516000  1.142085e-02
  2.517000  1.141761e-02
  2.518000  1.141447e-02
  2.519000  1.141016e-02
  2.520000  1.140693e-02
  2.521000  1.140506e-02
  2.522000  1.139963e-02
  2.523000  1.140228e-02
  2.524000  1.139918e-02
  2.525000  1.139730e-02
  2.526000  1.139311e-02
  2.527000  1.139001e-02
  2.528000  1.138697e-02
  2.529000  1.138153e-02
  2.530000  1.137966e-02
  2.531000  1.137717e-02
  2.532000  1.137812e-02
  2.533000  1.137563e-02
  2.534000  1.137437e-02
  2.535000  1.137080e-02
  2.536000  1.136831e-02
  2.537000  1.136704e-02
  2.538000  1.136108e-02
  2.539000  1.135982e-02
  2.540000  1.135731e-02
  2.541000  1.135337e-02
  2.542000  1.135052e-02
  2.543000  1.135342e-02
  2.544000  1.134823e-02
  2.545000  1.134661e-02
  2.546000  1.134596e-02
  2.547000  1.134770e-02
  2.548000  1.134485e-02
  2.549000  1.134421e-02
  2.550000  1.134257e-02
  2.551000  1.133964e-02
  2.552000  1.133563e-02
  2.553000  1.133269e-02
  2.554000  1.133553e-02
  2.555000  1.133028e-02
  2.556000  1.132857e-02
  2.557000  1.132450e-02
  2.558000  1.132047e-02
  2.559000  1.131753e-02
  2.560000  1.131459e-02
  2.561000  1.131064e-02
  2.562000  1.130778e-02
  2.563000  1.130614e-02
  2.564000  1.130553e-02
  2.565000  1.130266e-02
  2.566000  1.129986e-02
  2.567000  1.129470e-02
  2.568000  1.129305e-02
  2.569000  1.129018e-02
  2.570000  1.128501e-02
  2.571000  1.128329e-02
  2.572000  1.128035e-02
  2.573000  1.127634e-02
  2.574000  1.127796e-02
  2.575000  1.127502e-02
  2.576000  1.126987e-02
  2.577000  1.126692e-02
  2.578000  1.126398e-02
  2.579000  1.125998e-02
  2.580000  1.125703e-02
  2.581000  1.125412e-02
  2.582000  1.125244e-02
  2.583000  1.124723e-02
  2.584000  1.124889e-02
  2.585000  1.124719e-02
  2.586000  1.124200e-02
  2.587000  1.123795e-02
  2.588000  1.123626e-02
  2.589000  1.123334e-02
  2.590000  1.122814e-02
  2.591000  1.122683e-02
  2.592000  1.122432e-02
  2.593000  1.122179e-02
  2.594000  1.121820e-02
  2.595000  1.121568e-02
  2.596000  1.121772e-02
  2.597000  1.121641e-02
  2.598000  1.121160e-02
  2.599000  1.120794e-02
  2.600000  1.120541e-02
  2.601000  1.120340e-02
  2.602000  1.120017e-02
  2.603000  1.119695e-02
  2.604000  1.119264e-02
  2.605000  1.118942e-02
  2.606000  1.118162e-02
  2.607000  1.117839e-02
  2.608000  1.117179e-02
  2.609000  1.116856e-02
  2.610000  1.116533e-02
  2.611000  1.116237e-02
  2.612000  1.116060e-02
  2.613000  1.115764e-02
  2.614000  1.115467e-02
  2.615000  1.115170e-02
  2.616000  1.114994e-02
  2.617000  1.114696e-02
  2.618000  1.114857e-02
  2.619000  1.114559e-02
  2.620000  1.114382e-02
  2.621000  1.114569e-02
  2.622000  1.114297e-02
  2.623000  1.114483e-02
  2.624000  1.114669e-02
  2.625000  1.114515e-02
  2.626000  1.114243e-02
  2.627000  1.113971e-02
  2.628000  1.113698e-02
  2.629000  1.113425e-02
  2.630000  1.113271e-02
  2.631000  1.112977e-02
  2.632000  1.112683e-02
  2.633000  1.112387e-02
  2.634000  1.112092e-02
  2.635000  1.111917e-02
  2.636000  1.111621e-02
  2.637000  1.111326e-02
  2.638000  1.111031e-02
  2.639000  1.110734e-02
  2.640000  1.110558e-02
  2.641000  1.110271e-02
  2.642000  1.109982e-02
  2.643000  1.109695e-02
  2.644000  1.109406e-02
  2.645000  1.109578e-02
  2.646000  1.109409e-02
  2.647000  1.109120e-02
  2.648000  1.108832e-02
  2.649000  1.108543e-02
  2.650000  1.108255e-02
  2.651000  1.107914e-02
  2.652000  1.107693e-02
  2.653000  1.107352e-02
  2.654000  1.107012e-02
  2.655000  1.106210e-02
  2.656000  1.105870e-02
  2.657000  1.105068e-02
  2.658000  1.104728e-02
  2.659000  1.104043e-02
  2.660000  1.103702e-02
  2.661000  1.103334e-02
  2.662000  1.102968e-02
  2.663000  1.102601e-02
  2.664000  1.102233e-02
  2.665000  1.101866e-02
  2.666000  1.101617e-02
  2.667000  1.101249e-02
  2.668000  1.100881e-02
  2.669000  1.100513e-02
  2.670000  1.100607e-02
  2.671000  1.100274e-02
  2.672000  1.099830e-02
  2.673000  1.099497e-02
  2.674000  1.098702e-02
  2.675000  1.098485e-02
  2.676000  1.098152e-02
  2.677000  1.097132e-02
  2.678000  1.096336e-02
  2.679000  1.096003e-02
  2.680000  1.095670e-02
  2.681000  1.095317e-02
  2.682000  1.094964e-02
  2.683000  1.094612e-02
  2.684000  1.094375e-02
  2.685000  1.094023e-02
  2.686000  1.093670e-02
  2.687000  1.093317e-02
  2.688000  1.092964e-02
  2.689000  1.092611e-02
  2.690000  1.091925e-02
  2.691000  1.091467e-02
  2.692000  1.091009e-02
  2.693000  1.090551e-02
  2.694000  1.090093e-02
  2.695000  1.089290e-02
  2.696000  1.088831e-02
  2.697000  1.087688e-02
  2.698000  1.087230e-02
  2.699000  1.086309e-02
  2.700000  1.085742e-02
  2.701000  1.085467e-02
  2.702000  1.085083e-02
  2.703000  1.084699e-02
  2.704000  1.084314e-02
  2.705000  1.083467e-02
  2.706000  1.083083e-02
  2.707000  1.082235e-02
  2.708000  1.081965e-02
  2.709000  1.081118e-02
  2.710000  1.080732e-02
  2.711000  1.080238e-02
  2.712000  1.079744e-02
  2.713000  1.079248e-02
  2.714000  1.078754e-02
  2.715000  1.078260e-02
  2.716000  1.077303e-02
  2.717000  1.076918e-02
  2.718000  1.075961e-02
  2.719000  1.075005e-02
  2.720000  1.074511e-02
  2.721000  1.073601e-02
  2.722000  1.073154e-02
  2.723000  1.072246e-02
  2.724000  1.071913e-02
  2.725000  1.071466e-02
  2.726000  1.071020e-02
  2.727000  1.070573e-02
  2.728000  1.070126e-02
  2.729000  1.069217e-02
  2.730000  1.068770e-02
  2.731000  1.068367e-02
  2.732000  1.067282e-02
  2.733000  1.066417e-02
  2.734000  1.066013e-02
  2.735000  1.065146e-02
  2.736000  1.064743e-02
  2.737000  1.063876e-02
  2.738000  1.063474e-02
  2.739000  1.062606e-02
  2.740000  1.061987e-02
  2.741000  1.061584e-02
  2.742000  1.061179e-02
  2.743000  1.060888e-02
  2.744000  1.060485e-02
  2.745000  1.059403e-02
  2.746000  1.058999e-02
  2.747000  1.058026e-02
  2.748000  1.057622e-02
  2.749000  1.056539e-02
  2.750000  1.056136e-02
  2.751000  1.055268e-02
  2.752000  1.054646e-02
  2.753000  1.053778e-02
  2.754000  1.053372e-02
  2.755000  1.052183e-02
  2.756000  1.051315e-02
  2.757000  1.050909e-02
  2.758000  1.049827e-02
  2.759000  1.049421e-02
  2.760000  1.048233e-02
  2.761000  1.047983e-02
  2.762000  1.047055e-02
  2.763000  1.046804e-02
  2.764000  1.045772e-02
  2.765000  1.045521e-02
  2.766000  1.045057e-02
  2.767000  1.044699e-02
  2.768000  1.044234e-02
  2.769000  1.043983e-02
  2.770000  1.042950e-02
  2.771000  1.042472e-02
  2.772000  1.041745e-02
  2.773000  1.041163e-02
  2.774000  1.040334e-02
  2.775000  1.039963e-02
  2.776000  1.039022e-02
  2.777000  1.037976e-02
  2.778000  1.037500e-02
  2.779000  1.036454e-02
  2.780000  1.036189e-02
  2.781000  1.035326e-02
  2.782000  1.035028e-02
  2.783000  1.034164e-02
  2.784000  1.033868e-02
  2.785000  1.033467e-02
  2.786000  1.032602e-02
  2.787000  1.032305e-02
  2.788000  1.031903e-02
  2.789000  1.031502e-02
  2.790000  1.031205e-02
  2.791000  1.030419e-02
  2.792000  1.029886e-02
  2.793000  1.029204e-02
  2.794000  1.028883e-02
  2.795000  1.028096e-02
  2.796000  1.027309e-02
  2.797000  1.026776e-02
  2.798000  1.025988e-02
  2.799000  1.025771e-02
  2.800000  1.025237e-02
  2.801000  1.025000e-02
  2.802000  1.024554e-02
  2.803000  1.024316e-02
  2.804000  1.023869e-02
  2.805000  1.023167e-02
  2.806000  1.022612e-02
  2.807000  1.021806e-02
  2.808000  1.020894e-02
  2.809000  1.020448e-02
  2.810000  1.019745e-02
  2.811000  1.019401e-02
  2.812000  1.018594e-02
  2.813000  1.018355e-02
  2.814000  1.017548e-02
  2.815000  1.017204e-02
  2.816000  1.016861e-02
  2.817000  1.016412e-02
  2.818000  1.016069e-02
  2.819000  1.015933e-02
  2.820000  1.015021e-02
  2.821000  1.014782e-02
  2.822000  1.014078e-02
  2.823000  1.013736e-02
  2.824000  1.013030e-02
  2.825000  1.012792e-02
  2.826000  1.012450e-02
  2.827000  1.012211e-02
  2.828000  1.011658e-02
  2.829000  1.011313e-02
  2.830000  1.010970e-02
  2.831000  1.010329e-02
  2.832000  1.009585e-02
  2.833000  1.009410e-02
  2.834000  1.008924e-02
  2.835000  1.008282e-02
  2.836000  1.008002e-02
  2.837000  1.007724e-02
  2.838000  1.007340e-02
  2.839000  1.007060e-02
  2.840000  1.006884e-02
  2.841000  1.006348e-02
  2.842000  1.006126e-02
  2.843000  1.006007e-02
  2.844000  1.005578e-02
  2.845000  1.005356e-02
  2.846000  1.004770e-02
  2.847000  1.004338e-02
  2.848000  1.003649e-02
  2.849000  1.003113e-02
  2.850000  1.002527e-02
  2.851000  1.002122e-02
  2.852000  1.001927e-02
  2.853000  1.001522e-02
  2.854000  1.001428e-02
  2.855000  1.001024e-02
  2.856000  1.001295e-02
  2.857000  1.000786e-02
  2.858000  1.000017e-02
  2.859000  9.998189e-03
  2.860000  9.994155e-03
  2.861000  9.988255e-03
  2.862000  9.984978e-03
  2.863000  9.975957e-03
  2.864000  9.975775e-03
  2.865000  9.972482e-03
  2.866000  9.969198e-03
  2.867000  9.967977e-03
  2.868000  9.963651e-03
  2.869000  9.960361e-03
  2.870000  9.959129e-03
  2.871000  9.955842e-03
  2.872000  9.953557e-03
  2.873000  9.951286e-03
  2.874000  9.947986e-03
  2.875000  9.939985e-03
  2.876000  9.936682e-03
  2.877000  9.930747e-03
  2.878000  9.926400e-03
  2.879000  9.918397e-03
  2.880000  9.915086e-03
  2.881000  9.914016e-03
  2.882000  9.910872e-03
  2.883000  9.907722e-03
  2.884000  9.904589e-03
  2.885000  9.903518e-03
  2.886000  9.899343e-03
  2.887000  9.896209e-03
  2.888000  9.893055e-03
  2.889000  9.891991e-03
  2.890000  9.887820e-03
  2.891000  9.884867e-03
  2.892000  9.881900e-03
  2.893000  9.877918e-03
  2.894000  9.877023e-03
  2.895000  9.875093e-03
  2.896000  9.872125e-03
  2.897000  9.868150e-03
  2.898000  9.865197e-03
  2.899000  9.864294e-03
  2.900000  9.860316e-03
  2.901000  9.857449e-03
  2.902000  9.854577e-03
  2.903000  9.850673e-03
  2.904000  9.847801e-03
  2.905000  9.844925e-03
  2.906000  9.841031e-03
  2.907000  9.837140e-03
  2.908000  9.831182e-03
  2.909000  9.828305e-03
  2.910000  9.820713e-03
  2.911000  9.816625e-03
  2.912000  9.808844e-03
  2.913000  9.805792e-03
  2.914000  9.798628e-03
  2.915000  9.790850e-03
  2.916000  9.786771e-03
  2.917000  9.783709e-03
  2.918000  9.785377e-03
  2.919000  9.779235e-03
  2.920000  9.775144e-03
  2.921000  9.770789e-03
  2.922000  9.767433e-03
  2.923000  9.763068e-03
  2.924000  9.757648e-03
  2.925000  9.752273e-03
  2.926000  9.748906e-03
  2.927000  9.744543e-03
  2.928000  9.739118e-03
  2.929000  9.735769e-03
  2.930000  9.731391e-03
  2.931000  9.726721e-03
  2.932000  9.719994e-03
  2.933000  9.716339e-03
  2.934000  9.711666e-03
  2.935000  9.708000e-03
  2.936000  9.703330e-03
  2.937000  9.695606e-03
  2.938000  9.691934e-03
  2.939000  9.687259e-03
  2.940000  9.683601e-03
  2.941000  9.683358e-03
  2.942000  9.679381e-03
  2.943000  9.677068e-03
  2.944000  9.673113e-03
  2.945000  9.667117e-03
  2.946000  9.662136e-03
  2.947000  9.658175e-03
  2.948000  9.653197e-03
  2.949000  9.649213e-03
  2.950000  9.644247e-03
  2.951000  9.638892e-03
  2.952000  9.634531e-03
  2.953000  9.629179e-03
  2.954000  9.624819e-03
  2.955000  9.624196e-03
  2.956000  9.618839e-03
  2.957000  9.614489e-03
  2.958000  9.609135e-03
  2.959000  9.606844e-03
  2.960000  9.602477e-03
  2.961000  9.596246e-03
  2.962000  9.590009e-03
  2.963000  9.584777e-03
  2.964000  9.580614e-03
  2.965000  9.575380e-03
  2.966000  9.569154e-03
  2.967000  9.565971e-03
  2.968000  9.559735e-03
  2.969000  9.556570e-03
  2.970000  9.551331e-03
  2.971000  9.546218e-03
  2.972000  9.540075e-03
  2.973000  9.534967e-03
  2.974000  9.527812e-03
  2.975000  9.524706e-03
  2.976000  9.519608e-03
  2.977000  9.513459e-03
  2.978000  9.508355e-03
  2.979000  9.505239e-03
  2.980000  9.501147e-03
  2.981000  9.493426e-03
  2.982000  9.488747e-03
  2.983000  9.487795e-03
  2.984000  9.483123e-03
  2.985000  9.478442e-03
  2.986000  9.479472e-03
  2.987000  9.475842e-03
  2.988000  9.475886e-03
  2.989000  9.471208e-03
  2.990000  9.466536e-03
  2.991000  9.461048e-03
  2.992000  9.457609e-03
  2.993000  9.452130e-03
  2.994000  9.448703e-03
  2.995000  9.444200e-03
  2.996000  9.440766e-03
  2.997000  9.435280e-03
  2.998000  9.431834e-03
  2.999000  9.428387e-03
  3.000000  9.422909e-03
  3.001000  9.419350e-03
  3.002000  9.414793e-03
  3.003000  9.412910e-03
  3.004000  9.408352e-03
  3.005000  9.404779e-03
  3.006000  9.400222e-03
  3.007000  9.396647e-03
  3.008000  9.392086e-03
  3.009000  9.387523e-03
  3.010000  9.383947e-03
  3.011000  9.378162e-03
  3.012000  9.373378e-03
  3.013000  9.366633e-03
  3.014000  9.361836e-03
  3.015000  9.357048e-03
  3.016000  9.353313e-03
  3.017000  9.348525e-03
  3.018000  9.343736e-03
  3.019000  9.339976e-03
  3.020000  9.335187e-03
  3.021000  9.329506e-03
  3.022000  9.324877e-03
  3.023000  9.319197e-03
  3.024000  9.314557e-03
  3.025000  9.315621e-03
  3.026000  9.309941e-03
  3.027000  9.306279e-03
  3.028000  9.301650e-03
  3.029000  9.295972e-03
  3.030000  9.292308e-03
  3.031000  9.287781e-03
  3.032000  9.283263e-03
  3.033000  9.277784e-03
  3.034000  9.274242e-03
  3.035000  9.269714e-03
  3.036000  9.265198e-03
  3.037000  9.259719e-03
  3.038000  9.255200e-03
  3.039000  9.251658e-03
  3.040000  9.247140e-03
  3.041000  9.242838e-03
  3.042000  9.238463e-03
  3.043000  9.233120e-03
  3.044000  9.226818e-03
  3.045000  9.224441e-03
  3.046000  9.223825e-03
  3.047000  9.220490e-03
  3.048000  9.215146e-03
  3.049000  9.212775e-03
  3.050000  9.206475e-03
  3.051000  9.202675e-03
  3.052000  9.195918e-03
  3.053000  9.191151e-03
  3.054000  9.187360e-03
  3.055000  9.181626e-03
  3.056000  9.175829e-03
  3.057000  9.172034e-03
  3.058000  9.166303e-03
  3.059000  9.162497e-03
  3.060000  9.157748e-03
  3.061000  9.153162e-03
  3.062000  9.147637e-03
  3.063000  9.143050e-03
  3.064000  9.137507e-03
  3.065000  9.131981e-03
  3.066000  9.132122e-03
  3.067000  9.126587e-03
  3.068000  9.123983e-03
  3.069000  9.118457e-03
  3.070000  9.113877e-03
  3.071000  9.107104e-03
  3.072000  9.103241e-03
  3.073000  9.096473e-03
  3.074000  9.092615e-03
  3.075000  9.085847e-03
  3.076000  9.082000e-03
  3.077000  9.076179e-03
  3.078000  9.071379e-03
  3.079000  9.065559e-03
  3.080000  9.065484e-03
  3.081000  9.061761e-03
  3.082000  9.058936e-03
  3.083000  9.053330e-03
  3.084000  9.048663e-03
  3.085000  9.048734e-03
  3.086000  9.044064e-03
  3.087000  9.038463e-03
  3.088000  9.033816e-03
  3.089000  9.029151e-03
  3.090000  9.024491e-03
  3.091000  9.018696e-03
  3.092000  9.012907e-03
  3.093000  9.006177e-03
  3.094000  9.001334e-03
  3.095000  8.994602e-03
  3.096000  8.988826e-03
  3.097000  8.984981e-03
  3.098000  8.979196e-03
  3.099000  8.972477e-03
  3.100000  8.969557e-03
  3.101000  8.962796e-03
  3.102000  8.957025e-03
  3.103000  8.950256e-03
  3.104000  8.946360e-03
  3.105000  8.946235e-03
  3.106000  8.940461e-03
  3.107000  8.936552e-03
  3.108000  8.929800e-03
  3.109000  8.924964e-03
  3.110000  8.920134e-03
  3.111000  8.915333e-03
  3.112000  8.911511e-03
  3.113000  8.905784e-03
  3.114000  8.900051e-03
  3.115000  8.895257e-03
  3.116000  8.889541e-03
  3.117000  8.885708e-03
  3.118000  8.879985e-03
  3.119000  8.874269e-03
  3.120000  8.872293e-03
  3.121000  8.865938e-03
  3.122000  8.861490e-03
  3.123000  8.859854e-03
  3.124000  8.855390e-03
  3.125000  8.852799e-03
  3.126000  8.846450e-03
  3.127000  8.841997e-03
  3.128000  8.838456e-03
  3.129000  8.832117e-03
  3.130000  8.827654e-03
  3.131000  8.824475e-03
  3.132000  8.819460e-03
  3.133000  8.812579e-03
  3.134000  8.808471e-03
  3.135000  8.803450e-03
  3.136000  8.799360e-03
  3.137000  8.795250e-03
  3.138000  8.790230e-03
  3.139000  8.786125e-03
  3.140000  8.785831e-03
  3.141000  8.781500e-03
  3.142000  8.776262e-03
  3.143000  8.771938e-03
  3.144000  8.767619e-03
  3.145000  8.763298e-03
  3.146000  8.758064e-03
  3.147000  8.753735e-03
  3.148000  8.748499e-03
  3.149000  8.744177e-03
  3.150000  8.738936e-03
  3.151000  8.734664e-03
  3.152000  8.729491e-03
  3.153000  8.726133e-03
  3.154000  8.720956e-03
  3.155000  8.716685e-03
  3.156000  8.713347e-03
  3.157000  8.713786e-03
  3.158000  8.708600e-03
  3.159000  8.704320e-03
  3.160000  8.699148e-03
  3.161000  8.694932e-03
  3.162000  8.689818e-03
  3.163000  8.685592e-03
  3.164000  8.680464e-03
  3.165000  8.677154e-03
  3.166000  8.672033e-03
  3.167000  8.667814e-03
  3.168000  8.662689e-03
  3.169000  8.658467e-03
  3.170000  8.653346e-03
  3.171000  8.649417e-03
  3.172000  8.644604e-03
  3.173000  8.642703e-03
  3.174000  8.638771e-03
  3.175000  8.633959e-03
  3.176000  8.629140e-03
  3.177000  8.625213e-03
  3.178000  8.618602e-03
  3.179000  8.614689e-03
  3.180000  8.610755e-03
  3.181000  8.604707e-03
  3.182000  8.600455e-03
  3.183000  8.596192e-03
  3.184000  8.591037e-03
  3.185000  8.586772e-03
  3.186000  8.580740e-03
  3.187000  8.576473e-03
  3.188000  8.570425e-03
  3.189000  8.570892e-03
  3.190000  8.564846e-03
  3.191000  8.560541e-03
  3.192000  8.555367e-03
  3.193000  8.551948e-03
  3.194000  8.546760e-03
  3.195000  8.541581e-03
  3.196000  8.535524e-03
  3.197000  8.531236e-03
  3.198000  8.526056e-03
  3.199000  8.520874e-03
  3.200000  8.515696e-03
  3.201000  8.508710e-03
  3.202000  8.502610e-03
  3.203000  8.497390e-03
  3.204000  8.496000e-03
  3.205000  8.489027e-03
  3.206000  8.482924e-03
  3.207000  8.475965e-03
  3.208000  8.469877e-03
  3.209000  8.462906e-03
  3.210000  8.455963e-03
  3.211000  8.450662e-03
  3.212000  8.444509e-03
  3.213000  8.439232e-03
  3.214000  8.433940e-03
  3.215000  8.427785e-03
  3.216000  8.421630e-03
  3.217000  8.421043e-03
  3.218000  8.413157e-03
  3.219000  8.407002e-03
  3.220000  8.396176e-03
  3.221000  8.388687e-03
  3.222000  8.382943e-03
  3.223000  8.373356e-03
  3.224000  8.365887e-03
  3.225000  8.361026e-03
  3.226000  8.353568e-03
  3.227000  8.347827e-03
  3.228000  8.340377e-03
  3.229000  8.334646e-03
  3.230000  8.327192e-03
  3.231000  8.325529e-03
  3.232000  8.320882e-03
  3.233000  8.314532e-03
  3.234000  8.308185e-03
  3.235000  8.304423e-03
  3.236000  8.298078e-03
  3.237000  8.291735e-03
  3.238000  8.285391e-03
  3.239000  8.278215e-03
  3.240000  8.271878e-03
  3.241000  8.267655e-03
  3.242000  8.261732e-03
  3.243000  8.256694e-03
  3.244000  8.250777e-03
  3.245000  8.248696e-03
  3.246000  8.242777e-03
  3.247000  8.236873e-03
  3.248000  8.230960e-03
  3.249000  8.225054e-03
  3.250000  8.217492e-03
  3.251000  8.212230e-03
  3.252000  8.206957e-03
  3.253000  8.200862e-03
  3.254000  8.195599e-03
  3.255000  8.190328e-03
  3.256000  8.183419e-03
  3.257000  8.182829e-03
  3.258000  8.177569e-03
  3.259000  8.171480e-03
  3.260000  8.159880e-03
  3.261000  8.154948e-03
  3.262000  8.149989e-03
  3.263000  8.138706e-03
  3.264000  8.132925e-03
  3.265000  8.127977e-03
  3.266000  8.121391e-03
  3.267000  8.116437e-03
  3.268000  8.110668e-03
  3.269000  8.108711e-03
  3.270000  8.103795e-03
  3.271000  8.097467e-03
  3.272000  8.091978e-03
  3.273000  8.085653e-03
  3.274000  8.081032e-03
  3.275000  8.074711e-03
  3.276000  8.069226e-03
  3.277000  8.062911e-03
  3.278000  8.058281e-03
  3.279000  8.051974e-03
  3.280000  8.046496e-03
  3.281000  8.039837e-03
  3.282000  8.039497e-03
  3.283000  8.034485e-03
  3.284000  8.028651e-03
  3.285000  8.024489e-03
  3.286000  8.017839e-03
  3.287000  8.012010e-03
  3.288000  8.007848e-03
  3.289000  8.002012e-03
  3.290000  7.995371e-03
  3.291000  7.991436e-03
  3.292000  7.981181e-03
  3.293000  7.974763e-03
  3.294000  7.970835e-03
  3.295000  7.965223e-03
  3.296000  7.958810e-03
  3.297000  7.954874e-03
  3.298000  7.948462e-03
  3.299000  7.943706e-03
  3.300000  7.938928e-03
  3.301000  7.933413e-03
  3.302000  7.929549e-03
  3.303000  7.923227e-03
  3.304000  7.924815e-03
  3.305000  7.918494e-03
  3.306000  7.914605e-03
  3.307000  7.909133e-03
  3.308000  7.904428e-03
  3.309000  7.899756e-03
  3.310000  7.895050e-03
  3.311000  7.889804e-03
  3.312000  7.886135e-03
  3.313000  7.880884e-03
  3.314000  7.876417e-03
  3.315000  7.871141e-03
  3.316000  7.865898e-03
  3.317000  7.861434e-03
  3.318000  7.852339e-03
  3.319000  7.846258e-03
  3.320000  7.842623e-03
  3.321000  7.836762e-03
  3.322000  7.832524e-03
  3.323000  7.828258e-03
  3.324000  7.823223e-03
  3.325000  7.822838e-03
  3.326000  7.819361e-03
  3.327000  7.814326e-03
  3.328000  7.808469e-03
  3.329000  7.803434e-03
  3.330000  7.799168e-03
  3.331000  7.790357e-03
  3.332000  7.784560e-03
  3.333000  7.779599e-03
  3.334000  7.776210e-03
  3.335000  7.770417e-03
  3.336000  7.766247e-03
  3.337000  7.760454e-03
  3.338000  7.757080e-03
  3.339000  7.752110e-03
  3.340000  7.746330e-03
  3.341000  7.741380e-03
  3.342000  7.736422e-03
  3.343000  7.731437e-03
  3.344000  7.728069e-03
  3.345000  7.726938e-03
  3.346000  7.721990e-03
  3.347000  7.717043e-03
  3.348000  7.711267e-03
  3.349000  7.706320e-03
  3.350000  7.701375e-03
  3.351000  7.693455e-03
  3.352000  7.687795e-03
  3.353000  7.683725e-03
  3.354000  7.678874e-03
  3.355000  7.673217e-03
  3.356000  7.668366e-03
  3.357000  7.663517e-03
  3.358000  7.657863e-03
  3.359000  7.654576e-03
  3.360000  7.649728e-03
  3.361000  7.645009e-03
  3.362000  7.639479e-03
  3.363000  7.634761e-03
  3.364000  7.634674e-03
  3.365000  7.629956e-03
  3.366000  7.625239e-03
  3.367000  7.619711e-03
  3.368000  7.614995e-03
  3.369000  7.612597e-03
  3.370000  7.607880e-03
  3.371000  7.602352e-03
  3.372000  7.592988e-03
  3.373000  7.588273e-03
  3.374000  7.583546e-03
  3.375000  7.578829e-03
  3.376000  7.573298e-03
  3.377000  7.568581e-03
  3.378000  7.563865e-03
  3.379000  7.559142e-03
  3.380000  7.555967e-03
  3.381000  7.551228e-03
  3.382000  7.550320e-03
  3.383000  7.545587e-03
  3.384000  7.540846e-03
  3.385000  7.536105e-03
  3.386000  7.531373e-03
  3.387000  7.526629e-03
  3.388000  7.523425e-03
  3.389000  7.518684e-03
  3.390000  7.513150e-03
  3.391000  7.508410e-03
  3.392000  7.499033e-03
  3.393000  7.494293e-03
  3.394000  7.489551e-03
  3.395000  7.486339e-03
  3.396000  7.482365e-03
  3.397000  7.477623e-03
  3.398000  7.472881e-03
  3.399000  7.472780e-03
  3.400000  7.467243e-03
  3.401000  7.464076e-03
  3.402000  7.459376e-03
  3.403000  7.456206e-03
  3.404000  7.451513e-03
  3.405000  7.447569e-03
  3.406000  7.444394e-03
  3.407000  7.439700e-03
  3.408000  7.435000e-03
  3.409000  7.436472e-03
  3.410000  7.431777e-03
  3.411000  7.428547e-03
  3.412000  7.424564e-03
  3.413000  7.419817e-03
  3.414000  7.416592e-03
  3.415000  7.411855e-03
  3.416000  7.408618e-03
  3.417000  7.399234e-03
  3.418000  7.396751e-03
  3.419000  7.392013e-03
  3.420000  7.387264e-03
  3.421000  7.383695e-03
  3.422000  7.377839e-03
  3.423000  7.374259e-03
  3.424000  7.369940e-03
  3.425000  7.366369e-03
  3.426000  7.365933e-03
  3.427000  7.360862e-03
  3.428000  7.357288e-03
  3.429000  7.352207e-03
  3.430000  7.348638e-03
  3.431000  7.344746e-03
  3.432000  7.341621e-03
  3.433000  7.336986e-03
  3.434000  7.333850e-03
  3.435000  7.329215e-03
  3.436000  7.325357e-03
  3.437000  7.322964e-03
  3.438000  7.313675e-03
  3.439000  7.310538e-03
  3.440000  7.305898e-03
  3.441000  7.302703e-03
  3.442000  7.302676e-03
  3.443000  7.299493e-03
  3.444000  7.295547e-03
  3.445000  7.290868e-03
  3.446000  7.287671e-03
  3.447000  7.282996e-03
  3.448000  7.279791e-03
  3.449000  7.275108e-03
  3.450000  7.277299e-03
  3.451000  7.272457e-03
  3.452000  7.269090e-03
  3.453000  7.264239e-03
  3.454000  7.259388e-03
  3.455000  7.256026e-03
  3.456000  7.246514e-03
  3.457000  7.243871e-03
  3.458000  7.239018e-03
  3.459000  7.235641e-03
  3.460000  7.230797e-03
  3.461000  7.226028e-03
  3.462000  7.222731e-03
  3.463000  7.217959e-03
  3.464000  7.214653e-03
  3.465000  7.210616e-03
  3.466000  7.210516e-03
  3.467000  7.207214e-03
  3.468000  7.202442e-03
  3.469000  7.199136e-03
  3.470000  7.194364e-03
  3.471000  7.190493e-03
  3.472000  7.187313e-03
  3.473000  7.183400e-03
  3.474000  7.180215e-03
  3.475000  7.175577e-03
  3.476000  7.170930e-03
  3.477000  7.167750e-03
  3.478000  7.163103e-03
  3.479000  7.153793e-03
  3.480000  7.150600e-03
  3.481000  7.151245e-03
  3.482000  7.147945e-03
  3.483000  7.143185e-03
  3.484000  7.138431e-03
  3.485000  7.135128e-03
  3.486000  7.130365e-03
  3.487000  7.125611e-03
  3.488000  7.122304e-03
  3.489000  7.122215e-03
  3.490000  7.117460e-03
  3.491000  7.113684e-03
  3.492000  7.110629e-03
  3.493000  7.106130e-03
  3.494000  7.101638e-03
  3.495000  7.098581e-03
  3.496000  7.094079e-03
  3.497000  7.089578e-03
  3.498000  7.080400e-03
  3.499000  7.077335e-03
  3.500000  7.072831e-03
  3.501000  7.068000e-03
  3.502000  7.063179e-03
  3.503000  7.063743e-03
  3.504000  7.060347e-03
  3.505000  7.055515e-03
  3.506000  7.050684e-03
  3.507000  7.045855e-03
  3.508000  7.041025e-03
  3.509000  7.036194e-03
  3.510000  7.031364e-03
  3.511000  7.032832e-03
  3.512000  7.028191e-03
  3.513000  7.023551e-03
  3.514000  7.018913e-03
  3.515000  7.014272e-03
  3.516000  7.009623e-03
  3.517000  7.000304e-03
  3.518000  6.995666e-03
  3.519000  6.991024e-03
  3.520000  6.988513e-03
  3.521000  6.983824e-03
  3.522000  6.979135e-03
  3.523000  6.974447e-03
  3.524000  6.973697e-03
  3.525000  6.969008e-03
  3.526000  6.964320e-03
  3.527000  6.959631e-03
  3.528000  6.954943e-03
  3.529000  6.950255e-03
  3.530000  6.945568e-03
  3.531000  6.945615e-03
  3.532000  6.940980e-03
  3.533000  6.936339e-03
  3.534000  6.931706e-03
  3.535000  6.927063e-03
  3.536000  6.917013e-03
  3.537000  6.912380e-03
  3.538000  6.907737e-03
  3.539000  6.903106e-03
  3.540000  6.898471e-03
  3.541000  6.893676e-03
  3.542000  6.888871e-03
  3.543000  6.884077e-03
  3.544000  6.878550e-03
  3.545000  6.878433e-03
  3.546000  6.873639e-03
  3.547000  6.868844e-03
  3.548000  6.864050e-03
  3.549000  6.859256e-03
  3.550000  6.854463e-03
  3.551000  6.849106e-03
  3.552000  6.844490e-03
  3.553000  6.835188e-03
  3.554000  6.830571e-03
  3.555000  6.825953e-03
  3.556000  6.820601e-03
  3.557000  6.815985e-03
  3.558000  6.816038e-03
  3.559000  6.811421e-03
  3.560000  6.806803e-03
  3.561000  6.801446e-03
  3.562000  6.796815e-03
  3.563000  6.792183e-03
  3.564000  6.787552e-03
  3.565000  6.787595e-03
  3.566000  6.782242e-03
  3.567000  6.777618e-03
  3.568000  6.772985e-03
  3.569000  6.768354e-03
  3.570000  6.763001e-03
  3.571000  6.756989e-03
  3.572000  6.752351e-03
  3.573000  6.742320e-03
  3.574000  6.737690e-03
  3.575000  6.733051e-03
  3.576000  6.728413e-03
  3.577000  6.727734e-03
  3.578000  6.723096e-03
  3.579000  6.718459e-03
  3.580000  6.713113e-03
  3.581000  6.708710e-03
  3.582000  6.704306e-03
  3.583000  6.703865e-03
  3.584000  6.699461e-03
  3.585000  6.690384e-03
  3.586000  6.685268e-03
  3.587000  6.679507e-03
  3.588000  6.675104e-03
  3.589000  6.669990e-03
  3.590000  6.665586e-03
  3.591000  6.660994e-03
  3.592000  6.655701e-03
  3.593000  6.651108e-03
  3.594000  6.645807e-03
  3.595000  6.645896e-03
  3.596000  6.641304e-03
  3.597000  6.636006e-03
  3.598000  6.631413e-03
  3.599000  6.626123e-03
  3.600000  6.621532e-03
  3.601000  6.616069e-03
  3.602000  6.611314e-03
  3.603000  6.601184e-03
  3.604000  6.596427e-03
  3.605000  6.591673e-03
  3.606000  6.586217e-03
  3.607000  6.586132e-03
  3.608000  6.580684e-03
  3.609000  6.575933e-03
  3.610000  6.570477e-03
  3.611000  6.565977e-03
  3.612000  6.560784e-03
  3.613000  6.560953e-03
  3.614000  6.555758e-03
  3.615000  6.551258e-03
  3.616000  6.541396e-03
  3.617000  6.536199e-03
  3.618000  6.531705e-03
  3.619000  6.526509e-03
  3.620000  6.522015e-03
  3.621000  6.516723e-03
  3.622000  6.512128e-03
  3.623000  6.506839e-03
  3.624000  6.506224e-03
  3.625000  6.501630e-03
  3.626000  6.496342e-03
  3.627000  6.491754e-03
  3.628000  6.486467e-03
  3.629000  6.481181e-03
  3.630000  6.476595e-03
  3.631000  6.476004e-03
  3.632000  6.471440e-03
  3.633000  6.466179e-03
  3.634000  6.460923e-03
  3.635000  6.456360e-03
  3.636000  6.452418e-03
  3.637000  6.442498e-03
  3.638000  6.437934e-03
  3.639000  6.432684e-03
  3.640000  6.427430e-03
  3.641000  6.422839e-03
  3.642000  6.422232e-03
  3.643000  6.416954e-03
  3.644000  6.412370e-03
  3.645000  6.407094e-03
  3.646000  6.401824e-03
  3.647000  6.396549e-03
  3.648000  6.396628e-03
  3.649000  6.391354e-03
  3.650000  6.386087e-03
  3.651000  6.376009e-03
  3.652000  6.371275e-03
  3.653000  6.365859e-03
  3.654000  6.360447e-03
  3.655000  6.355034e-03
  3.656000  6.350303e-03
  3.657000  6.344891e-03
  3.658000  6.338194e-03
  3.659000  6.337443e-03
  3.660000  6.332036e-03
  3.661000  6.327472e-03
  3.662000  6.322224e-03
  3.663000  6.316977e-03
  3.664000  6.311737e-03
  3.665000  6.306494e-03
  3.666000  6.301923e-03
  3.667000  6.296685e-03
  3.668000  6.291442e-03
  3.669000  6.286208e-03
  3.670000  6.280966e-03
  3.671000  6.275910e-03
  3.672000  6.270855e-03
  3.673000  6.266477e-03
  3.674000  6.261422e-03
  3.675000  6.260384e-03
  3.676000  6.255329e-03
  3.677000  6.250284e-03
  3.678000  6.245232e-03
  3.679000  6.240180e-03
  3.680000  6.235128e-03
  3.681000  6.228614e-03
  3.682000  6.224030e-03
  3.683000  6.218784e-03
  3.684000  6.213539e-03
  3.685000  6.208289e-03
  3.686000  6.203044e-03
  3.687000  6.197796e-03
  3.688000  6.192555e-03
  3.689000  6.187309e-03
  3.690000  6.186712e-03
  3.691000  6.181649e-03
  3.692000  6.175323e-03
  3.693000  6.170261e-03
  3.694000  6.165201e-03
  3.695000  6.160139e-03
  3.696000  6.155078e-03
  3.697000  6.150018e-03
  3.698000  6.144960e-03
  3.699000  6.135262e-03
  3.700000  6.133597e-03
  3.701000  6.129060e-03
  3.702000  6.123250e-03
  3.703000  6.118055e-03
  3.704000  6.112870e-03
  3.705000  6.106437e-03
  3.706000  6.105882e-03
  3.707000  6.100692e-03
  3.708000  6.095504e-03
  3.709000  6.089072e-03
  3.710000  6.083231e-03
  3.711000  6.078349e-03
  3.712000  6.073460e-03
  3.713000  6.062713e-03
  3.714000  6.057828e-03
  3.715000  6.052339e-03
  3.716000  6.052083e-03
  3.717000  6.045969e-03
  3.718000  6.041092e-03
  3.719000  6.036207e-03
  3.720000  6.030104e-03
  3.721000  6.029700e-03
  3.722000  6.024669e-03
  3.723000  6.018411e-03
  3.724000  6.013383e-03
  3.725000  6.008354e-03
  3.726000  6.003332e-03
  3.727000  5.996474e-03
  3.728000  5.986824e-03
  3.729000  5.981798e-03
  3.730000  5.975558e-03
  3.731000  5.974552e-03
  3.732000  5.969575e-03
  3.733000  5.963379e-03
  3.734000  5.958400e-03
  3.735000  5.953422e-03
  3.736000  5.951849e-03
  3.737000  5.946870e-03
  3.738000  5.941295e-03
  3.739000  5.935115e-03
  3.740000  5.930141e-03
  3.741000  5.925139e-03
  3.742000  5.920139e-03
  3.743000  5.913303e-03
  3.744000  5.903693e-03
  3.745000  5.903308e-03
  3.746000  5.897117e-03
  3.747000  5.892122e-03
  3.748000  5.887136e-03
  3.749000  5.880348e-03
  3.750000  5.879964e-03
  3.751000  5.875120e-03
  3.752000  5.869078e-03
  3.753000  5.863602e-03
  3.754000  5.858760e-03
  3.755000  5.852736e-03
  3.756000  5.847895e-03
  3.757000  5.843054e-03
  3.758000  5.837025e-03
  3.759000  5.832185e-03
  3.760000  5.826757e-03
  3.761000  5.821146e-03
  3.762000  5.814977e-03
  3.763000  5.809996e-03
  3.764000  5.805023e-03
  3.765000  5.803458e-03
  3.766000  5.798480e-03
  3.767000  5.793503e-03
  3.768000  5.788526e-03
  3.769000  5.781755e-03
  3.770000  5.781377e-03
  3.771000  5.776339e-03
  3.772000  5.771306e-03
  3.773000  5.764516e-03
  3.774000  5.759488e-03
  3.775000  5.754453e-03
  3.776000  5.749426e-03
  3.777000  5.742605e-03
  3.778000  5.737579e-03
  3.779000  5.732549e-03
  3.780000  5.727527e-03
  3.781000  5.721262e-03
  3.782000  5.716155e-03
  3.783000  5.711058e-03
  3.784000  5.710546e-03
  3.785000  5.704829e-03
  3.786000  5.698563e-03
  3.787000  5.693468e-03
  3.788000  5.688373e-03
  3.789000  5.683281e-03
  3.790000  5.678183e-03
  3.791000  5.672661e-03
  3.792000  5.666553e-03
  3.793000  5.660992e-03
  3.794000  5.656045e-03
  3.795000  5.651099e-03
  3.796000  5.646154e-03
  3.797000  5.641205e-03
  3.798000  5.640839e-03
  3.799000  5.635896e-03
  3.800000  5.630952e-03
  3.801000  5.625281e-03
  3.802000  5.620232e-03
  3.803000  5.619754e-03
  3.804000  5.614705e-03
  3.805000  5.609649e-03
  3.806000  5.604601e-03
  3.807000  5.594974e-03
  3.808000  5.589927e-03
  3.809000  5.584877e-03
  3.810000  5.579225e-03
  3.811000  5.578541e-03
  3.812000  5.573286e-03
  3.813000  5.568030e-03
  3.814000  5.562776e-03
  3.815000  5.557524e-03
  3.816000  5.556842e-03
  3.817000  5.551590e-03
  3.818000  5.546340e-03
  3.819000  5.542224e-03
  3.820000  5.537535e-03
  3.821000  5.531745e-03
  3.822000  5.526566e-03
  3.823000  5.521384e-03
  3.824000  5.516207e-03
  3.825000  5.511024e-03
  3.826000  5.505850e-03
  3.827000  5.501794e-03
  3.828000  5.496620e-03
  3.829000  5.496006e-03
  3.830000  5.490833e-03
  3.831000  5.485644e-03
  3.832000  5.480461e-03
  3.833000  5.476387e-03
  3.834000  5.470602e-03
  3.835000  5.465422e-03
  3.836000  5.460240e-03
  3.837000  5.455061e-03
  3.838000  5.450991e-03
  3.839000  5.445807e-03
  3.840000  5.440632e-03
  3.841000  5.435964e-03
  3.842000  5.435315e-03
  3.843000  5.431213e-03
  3.844000  5.426002e-03
  3.845000  5.420788e-03
  3.846000  5.415581e-03
  3.847000  5.414932e-03
  3.848000  5.410818e-03
  3.849000  5.405612e-03
  3.850000  5.400408e-03
  3.851000  5.395155e-03
  3.852000  5.391006e-03
  3.853000  5.385755e-03
  3.854000  5.380505e-03
  3.855000  5.375258e-03
  3.856000  5.370012e-03
  3.857000  5.366408e-03
  3.858000  5.361161e-03
  3.859000  5.360470e-03
  3.860000  5.355226e-03
  3.861000  5.351129e-03
  3.862000  5.345939e-03
  3.863000  5.340757e-03
  3.864000  5.335569e-03
  3.865000  5.331465e-03
  3.866000  5.326279e-03
  3.867000  5.321100e-03
  3.868000  5.315916e-03
  3.869000  5.311816e-03
  3.870000  5.307175e-03
  3.871000  5.301754e-03
  3.872000  5.300878e-03
  3.873000  5.296535e-03
  3.874000  5.291109e-03
  3.875000  5.285695e-03
  3.876000  5.284822e-03
  3.877000  5.280484e-03
  3.878000  5.275066e-03
  3.879000  5.270231e-03
  3.880000  5.264813e-03
  3.881000  5.260731e-03
  3.882000  5.255571e-03
  3.883000  5.250417e-03
  3.884000  5.245791e-03
  3.885000  5.241701e-03
  3.886000  5.236543e-03
  3.887000  5.231392e-03
  3.888000  5.226236e-03
  3.889000  5.226696e-03
  3.890000  5.222114e-03
  3.891000  5.217055e-03
  3.892000  5.211996e-03
  3.893000  5.211482e-03
  3.894000  5.207483e-03
  3.895000  5.202426e-03
  3.896000  5.197368e-03
  3.897000  5.192312e-03
  3.898000  5.183778e-03
  3.899000  5.179819e-03
  3.900000  5.179306e-03
  3.901000  5.174054e-03
  3.902000  5.168804e-03
  3.903000  5.163553e-03
  3.904000  5.158306e-03
  3.905000  5.159209e-03
  3.906000  5.153962e-03
  3.907000  5.148713e-03
  3.908000  5.143468e-03
  3.909000  5.138223e-03
  3.910000  5.132980e-03
  3.911000  5.128549e-03
  3.912000  5.124594e-03
  3.913000  5.119599e-03
  3.914000  5.114601e-03
  3.915000  5.109609e-03
  3.916000  5.104611e-03
  3.917000  5.104719e-03
  3.918000  5.100236e-03
  3.919000  5.095245e-03
  3.920000  5.091284e-03
  3.921000  5.090705e-03
  3.922000  5.086154e-03
  3.923000  5.081043e-03
  3.924000  5.075929e-03
  3.925000  5.070821e-03
  3.926000  5.066265e-03
  3.927000  5.061160e-03
  3.928000  5.056047e-03
  3.929000  5.051971e-03
  3.930000  5.046860e-03
  3.931000  5.042513e-03
  3.932000  5.037611e-03
  3.933000  5.037248e-03
  3.934000  5.032347e-03
  3.935000  5.028001e-03
  3.936000  5.023099e-03
  3.937000  5.022738e-03
  3.938000  5.017838e-03
  3.939000  5.014511e-03
  3.940000  5.010120e-03
  3.941000  5.005107e-03
  3.942000  5.000645e-03
  3.943000  4.995638e-03
  3.944000  4.990627e-03
  3.945000  4.985617e-03
  3.946000  4.981155e-03
  3.947000  4.976147e-03
  3.948000  4.975669e-03
  3.949000  4.972220e-03
  3.950000  4.967211e-03
  3.951000  4.962110e-03
  3.952000  4.961540e-03
  3.953000  4.956985e-03
  3.954000  4.951881e-03
  3.955000  4.946783e-03
  3.956000  4.942230e-03
  3.957000  4.937127e-03
  3.958000  4.932031e-03
  3.959000  4.927479e-03
  3.960000  4.922387e-03
  3.961000  4.918341e-03
  3.962000  4.913839e-03
  3.963000  4.908795e-03
  3.964000  4.908279e-03
  3.965000  4.903779e-03
  3.966000  4.898737e-03
  3.967000  4.893696e-03
  3.968000  4.893680e-03
  3.969000  4.889180e-03
  3.970000  4.884140e-03
  3.971000  4.879332e-03
  3.972000  4.875069e-03
  3.973000  4.870259e-03
  3.974000  4.866985e-03
  3.975000  4.862176e-03
  3.976000  4.857373e-03
  3.977000  4.853103e-03
  3.978000  4.848301e-03
  3.979000  4.848020e-03
  3.980000  4.843754e-03
  3.981000  4.838730e-03
  3.982000  4.833706e-03
  3.983000  4.833744e-03
  3.984000  4.828721e-03
  3.985000  4.823700e-03
  3.986000  4.819217e-03
  3.987000  4.815175e-03
  3.988000  4.810155e-03
  3.989000  4.805667e-03
  3.990000  4.800648e-03
  3.991000  4.795760e-03
  3.992000  4.791398e-03
  3.993000  4.791030e-03
  3.994000  4.786673e-03
  3.995000  4.781781e-03
  3.996000  4.776894e-03
  3.997000  4.777056e-03
  3.998000  4.772166e-03
  3.999000  4.767281e-03
  4.000000  4.762918e-03
  4.001000  4.758914e-03
  4.002000  4.753944e-03
  4.003000  4.749495e-03
  4.004000  4.744518e-03
  4.005000  4.740070e-03
  4.006000  4.735095e-03
  4.007000  4.730121e-03
  4.008000  4.730200e-03
  4.009000  4.725230e-03
  4.010000  4.720256e-03
  4.011000  4.715809e-03
  4.012000  4.715360e-03
  4.013000  4.710385e-03
  4.014000  4.705937e-03
  4.015000  4.700970e-03
  4.016000  4.696523e-03
  4.017000  4.691553e-03
  4.018000  4.687539e-03
  4.019000  4.683085e-03
  4.020000  4.678120e-03
  4.021000  4.673181e-03
  4.022000  4.673274e-03
  4.023000  4.668331e-03
  4.024000  4.663385e-03
  4.025000  4.658960e-03
  4.026000  4.658543e-03
  4.027000  4.654117e-03
  4.028000  4.649177e-03
  4.029000  4.644236e-03
  4.030000  4.639814e-03
  4.031000  4.634970e-03
  4.032000  4.630132e-03
  4.033000  4.625807e-03
  4.034000  4.620969e-03
  4.035000  4.616132e-03
  4.036000  4.612275e-03
  4.037000  4.611949e-03
  4.038000  4.607112e-03
  4.039000  4.602787e-03
  4.040000  4.597951e-03
  4.041000  4.597511e-03
  4.042000  4.593068e-03
  4.043000  4.588111e-03
  4.044000  4.583152e-03
  4.045000  4.578709e-03
  4.046000  4.573756e-03
  4.047000  4.568806e-03
  4.048000  4.564362e-03
  4.049000  4.559411e-03
  4.050000  4.558974e-03
  4.051000  4.554521e-03
  4.052000  4.549567e-03
  4.053000  4.544609e-03
  4.054000  4.544675e-03
  4.055000  4.540645e-03
  4.056000  4.535685e-03
  4.057000  4.531237e-03
  4.058000  4.526281e-03
  4.059000  4.525844e-03
  4.060000  4.520889e-03
  4.061000  4.516453e-03
  4.062000  4.511509e-03
  4.063000  4.506570e-03
  4.064000  4.502129e-03
  4.065000  4.497193e-03
  4.066000  4.492252e-03
  4.067000  4.487317e-03
  4.068000  4.486936e-03
  4.069000  4.482003e-03
  4.070000  4.477064e-03
  4.071000  4.473537e-03
  4.072000  4.473114e-03
  4.073000  4.468182e-03
  4.074000  4.463251e-03
  4.075000  4.458817e-03
  4.076000  4.453886e-03
  4.077000  4.448951e-03
  4.078000  4.444023e-03
  4.079000  4.439590e-03
  4.080000  4.434663e-03
  4.081000  4.429732e-03
  4.082000  4.429311e-03
  4.083000  4.424873e-03
  4.084000  4.419949e-03
  4.085000  4.420422e-03
  4.086000  4.415492e-03
  4.087000  4.411060e-03
  4.088000  4.406132e-03
  4.089000  4.401207e-03
  4.090000  4.396281e-03
  4.091000  4.391356e-03
  4.092000  4.386915e-03
  4.093000  4.381990e-03
  4.094000  4.381569e-03
  4.095000  4.376642e-03
  4.096000  4.372605e-03
  4.097000  4.368166e-03
  4.098000  4.363243e-03
  4.099000  4.362824e-03
  4.100000  4.357456e-03
  4.101000  4.352552e-03
  4.102000  4.347646e-03
  4.103000  4.347727e-03
  4.104000  4.343710e-03
  4.105000  4.338807e-03
  4.106000  4.333904e-03
  4.107000  4.329002e-03
  4.108000  4.324100e-03
  4.109000  4.319198e-03
  4.110000  4.314781e-03
  4.111000  4.310713e-03
  4.112000  4.310265e-03
  4.113000  4.305322e-03
  4.114000  4.300377e-03
  4.115000  4.295437e-03
  4.116000  4.294993e-03
  4.117000  4.290920e-03
  4.118000  4.285980e-03
  4.119000  4.281043e-03
  4.120000  4.276579e-03
  4.121000  4.271681e-03
  4.122000  4.266776e-03
  4.123000  4.262744e-03
  4.124000  4.262338e-03
  4.125000  4.257441e-03
  4.126000  4.252540e-03
  4.127000  4.247641e-03
  4.128000  4.243602e-03
  4.129000  4.243201e-03
  4.130000  4.238301e-03
  4.131000  4.233409e-03
  4.132000  4.228512e-03
  4.133000  4.228113e-03
  4.134000  4.224074e-03
  4.135000  4.219182e-03
  4.136000  4.218784e-03
  4.137000  4.213888e-03
  4.138000  4.208999e-03
  4.139000  4.204967e-03
  4.140000  4.200075e-03
  4.141000  4.195136e-03
  4.142000  4.190201e-03
  4.143000  4.185264e-03
  4.144000  4.180327e-03
  4.145000  4.180728e-03
  4.146000  4.175794e-03
  4.147000  4.170859e-03
  4.148000  4.165930e-03
  4.149000  4.165484e-03
  4.150000  4.161399e-03
  4.151000  4.156598e-03
  4.152000  4.151797e-03
  4.153000  4.151485e-03
  4.154000  4.146688e-03
  4.155000  4.141882e-03
  4.156000  4.137922e-03
  4.157000  4.137611e-03
  4.158000  4.132348e-03
  4.159000  4.127551e-03
  4.160000  4.122756e-03
  4.161000  4.122374e-03
  4.162000  4.118341e-03
  4.163000  4.113474e-03
  4.164000  4.108609e-03
  4.165000  4.103740e-03
  4.166000  4.098876e-03
  4.167000  4.093554e-03
  4.168000  4.089523e-03
  4.169000  4.089144e-03
  4.170000  4.084282e-03
  4.171000  4.079444e-03
  4.172000  4.074613e-03
  4.173000  4.074257e-03
  4.174000  4.068964e-03
  4.175000  4.064958e-03
  4.176000  4.060124e-03
  4.177000  4.059775e-03
  4.178000  4.054940e-03
  4.179000  4.050112e-03
  4.180000  4.044824e-03
  4.181000  4.044469e-03
  4.182000  4.040456e-03
  4.183000  4.035626e-03
  4.184000  4.030795e-03
  4.185000  4.029985e-03
  4.186000  4.025157e-03
  4.187000  4.020329e-03
  4.188000  4.015500e-03
  4.189000  4.014697e-03
  4.190000  4.009871e-03
  4.191000  4.005825e-03
  4.192000  4.000969e-03
  4.193000  4.000584e-03
  4.194000  3.995278e-03
  4.195000  3.990424e-03
  4.196000  3.985567e-03
  4.197000  3.985188e-03
  4.198000  3.979882e-03
  4.199000  3.975033e-03
  4.200000  3.970179e-03
  4.201000  3.964854e-03
  4.202000  3.959976e-03
  4.203000  3.955104e-03
  4.204000  3.950228e-03
  4.205000  3.949380e-03
  4.206000  3.944506e-03
  4.207000  3.939637e-03
  4.208000  3.934319e-03
  4.209000  3.933916e-03
  4.210000  3.929047e-03
  4.211000  3.923838e-03
  4.212000  3.919069e-03
  4.213000  3.918765e-03
  4.214000  3.913997e-03
  4.215000  3.908792e-03
  4.216000  3.908487e-03
  4.217000  3.903324e-03
  4.218000  3.898119e-03
  4.219000  3.893360e-03
  4.220000  3.888598e-03
  4.221000  3.883427e-03
  4.222000  3.878704e-03
  4.223000  3.877999e-03
  4.224000  3.873272e-03
  4.225000  3.868550e-03
  4.226000  3.863390e-03
  4.227000  3.858666e-03
  4.228000  3.858400e-03
  4.229000  3.853239e-03
  4.230000  3.848521e-03
  4.231000  3.843720e-03
  4.232000  3.842937e-03
  4.233000  3.838138e-03
  4.234000  3.832898e-03
  4.235000  3.828102e-03
  4.236000  3.822533e-03
  4.237000  3.817304e-03
  4.238000  3.812511e-03
  4.239000  3.811733e-03
  4.240000  3.806942e-03
  4.241000  3.802095e-03
  4.242000  3.796819e-03
  4.243000  3.796425e-03
  4.244000  3.791151e-03
  4.245000  3.786310e-03
  4.246000  3.781469e-03
  4.247000  3.780644e-03
  4.248000  3.775806e-03
  4.249000  3.770540e-03
  4.250000  3.764942e-03
  4.251000  3.759668e-03
  4.252000  3.754354e-03
  4.253000  3.749469e-03
  4.254000  3.748592e-03
  4.255000  3.743705e-03
  4.256000  3.738397e-03
  4.257000  3.733516e-03
  4.258000  3.733066e-03
  4.259000  3.727762e-03
  4.260000  3.722883e-03
  4.261000  3.717758e-03
  4.262000  3.712306e-03
  4.263000  3.707180e-03
  4.264000  3.702483e-03
  4.265000  3.701792e-03
  4.266000  3.697097e-03
  4.267000  3.692395e-03
  4.268000  3.687280e-03
  4.269000  3.687011e-03
  4.270000  3.681899e-03
  4.271000  3.677127e-03
  4.272000  3.671936e-03
  4.273000  3.667167e-03
  4.274000  3.662400e-03
  4.275000  3.656470e-03
  4.276000  3.656125e-03
  4.277000  3.650942e-03
  4.278000  3.646178e-03
  4.279000  3.640998e-03
  4.280000  3.640653e-03
  4.281000  3.635435e-03
  4.282000  3.630630e-03
  4.283000  3.625831e-03
  4.284000  3.620614e-03
  4.285000  3.615817e-03
  4.286000  3.610604e-03
  4.287000  3.610216e-03
  4.288000  3.603914e-03
  4.289000  3.599119e-03
  4.290000  3.594328e-03
  4.291000  3.589238e-03
  4.292000  3.588971e-03
  4.293000  3.583884e-03
  4.294000  3.579207e-03
  4.295000  3.574123e-03
  4.296000  3.569448e-03
  4.297000  3.569183e-03
  4.298000  3.564104e-03
  4.299000  3.559430e-03
  4.300000  3.554352e-03
  4.301000  3.553932e-03
  4.302000  3.548705e-03
  4.303000  3.543884e-03
  4.304000  3.543465e-03
  4.305000  3.538243e-03
  4.306000  3.533423e-03
  4.307000  3.528204e-03
  4.308000  3.523389e-03
  4.309000  3.518574e-03
  4.310000  3.513360e-03
  4.311000  3.512925e-03
  4.312000  3.507691e-03
  4.313000  3.502860e-03
  4.314000  3.498033e-03
  4.315000  3.497196e-03
  4.316000  3.492371e-03
  4.317000  3.487148e-03
  4.318000  3.482325e-03
  4.319000  3.477503e-03
  4.320000  3.472280e-03
  4.321000  3.467631e-03
  4.322000  3.467372e-03
  4.323000  3.462326e-03
  4.324000  3.457680e-03
  4.325000  3.457421e-03
  4.326000  3.452376e-03
  4.327000  3.447733e-03
  4.328000  3.447077e-03
  4.329000  3.442434e-03
  4.330000  3.437792e-03
  4.331000  3.432615e-03
  4.332000  3.427836e-03
  4.333000  3.423056e-03
  4.334000  3.417885e-03
  4.335000  3.417487e-03
  4.336000  3.412711e-03
  4.337000  3.407937e-03
  4.338000  3.402424e-03
  4.339000  3.402025e-03
  4.340000  3.397946e-03
  4.341000  3.392776e-03
  4.342000  3.387996e-03
  4.343000  3.383217e-03
  4.344000  3.378439e-03
  4.345000  3.377646e-03
  4.346000  3.372873e-03
  4.347000  3.368098e-03
  4.348000  3.363324e-03
  4.349000  3.362535e-03
  4.350000  3.357767e-03
  4.351000  3.353058e-03
  4.352000  3.352718e-03
  4.353000  3.347623e-03
  4.354000  3.342916e-03
  4.355000  3.338211e-03
  4.356000  3.333506e-03
  4.357000  3.328416e-03
  4.358000  3.328083e-03
  4.359000  3.323380e-03
  4.360000  3.318679e-03
  4.361000  3.313962e-03
  4.362000  3.313615e-03
  4.363000  3.308519e-03
  4.364000  3.304474e-03
  4.365000  3.299763e-03
  4.366000  3.299411e-03
  4.367000  3.294702e-03
  4.368000  3.289989e-03
  4.369000  3.289263e-03
  4.370000  3.284889e-03
  4.371000  3.280161e-03
  4.372000  3.275432e-03
  4.373000  3.270706e-03
  4.374000  3.265980e-03
  4.375000  3.261260e-03
  4.376000  3.260896e-03
  4.377000  3.256173e-03
  4.378000  3.251451e-03
  4.379000  3.251086e-03
  4.380000  3.245989e-03
  4.381000  3.241317e-03
  4.382000  3.241002e-03
  4.383000  3.236335e-03
  4.384000  3.232319e-03
  4.385000  3.227646e-03
  4.386000  3.222981e-03
  4.387000  3.222667e-03
  4.388000  3.217999e-03
  4.389000  3.213331e-03
  4.390000  3.208669e-03
  4.391000  3.203989e-03
  4.392000  3.203661e-03
  4.393000  3.198985e-03
  4.394000  3.194308e-03
  4.395000  3.194354e-03
  4.396000  3.189677e-03
  4.397000  3.185001e-03
  4.398000  3.184680e-03
  4.399000  3.180326e-03
  4.400000  3.175651e-03
  4.401000  3.170888e-03
  4.402000  3.166126e-03
  4.403000  3.162008e-03
  4.404000  3.157248e-03
  4.405000  3.157202e-03
  4.406000  3.152443e-03
  4.407000  3.147685e-03
  4.408000  3.147271e-03
  4.409000  3.142832e-03
  4.410000  3.138076e-03
  4.411000  3.138110e-03
  4.412000  3.134063e-03
  4.413000  3.129382e-03
  4.414000  3.124704e-03
  4.415000  3.124371e-03
  4.416000  3.120056e-03
  4.417000  3.115701e-03
  4.418000  3.115367e-03
  4.419000  3.110691e-03
  4.420000  3.106377e-03
  4.421000  3.102340e-03
  4.422000  3.097679e-03
  4.423000  3.093015e-03
  4.424000  3.093056e-03
  4.425000  3.088703e-03
  4.426000  3.084041e-03
  4.427000  3.084081e-03
  4.428000  3.079423e-03
  4.429000  3.075387e-03
  4.430000  3.071085e-03
  4.431000  3.070641e-03
  4.432000  3.066166e-03
  4.433000  3.061741e-03
  4.434000  3.061300e-03
  4.435000  3.056876e-03
  4.436000  3.052094e-03
  4.437000  3.047314e-03
  4.438000  3.042892e-03
  4.439000  3.039039e-03
  4.440000  3.038956e-03
  4.441000  3.034288e-03
  4.442000  3.029620e-03
  4.443000  3.029647e-03
  4.444000  3.024980e-03
  4.445000  3.020971e-03
  4.446000  3.020644e-03
  4.447000  3.016331e-03
  4.448000  3.011667e-03
  4.449000  3.007354e-03
  4.450000  3.007639e-03
  4.451000  3.003224e-03
  4.452000  2.998758e-03
  4.453000  2.994344e-03
  4.454000  2.989929e-03
  4.455000  2.989505e-03
  4.456000  2.985093e-03
  4.457000  2.980331e-03
  4.458000  2.975915e-03
  4.459000  2.975492e-03
  4.460000  2.971384e-03
  4.461000  2.967069e-03
  4.462000  2.966742e-03
  4.463000  2.962428e-03
  4.464000  2.957767e-03
  4.465000  2.957786e-03
  4.466000  2.953472e-03
  4.467000  2.948813e-03
  4.468000  2.949131e-03
  4.469000  2.944817e-03
  4.470000  2.940159e-03
  4.471000  2.935758e-03
  4.472000  2.931361e-03
  4.473000  2.931301e-03
  4.474000  2.926563e-03
  4.475000  2.922168e-03
  4.476000  2.917772e-03
  4.477000  2.918005e-03
  4.478000  2.913270e-03
  4.479000  2.908875e-03
  4.480000  2.908812e-03
  4.481000  2.904497e-03
  4.482000  2.899841e-03
  4.483000  2.899857e-03
  4.484000  2.895541e-03
  4.485000  2.891226e-03
  4.486000  2.886907e-03
  4.487000  2.882255e-03
  4.488000  2.877358e-03
  4.489000  2.877374e-03
  4.490000  2.873060e-03
  4.491000  2.869013e-03
  4.492000  2.869009e-03
  4.493000  2.864669e-03
  4.494000  2.859998e-03
  4.495000  2.859995e-03
  4.496000  2.855080e-03
  4.497000  2.850743e-03
  4.498000  2.850739e-03
  4.499000  2.846401e-03
  4.500000  2.842066e-03
  4.501000  2.837189e-03
  4.502000  2.832889e-03
  4.503000  2.828589e-03
  4.504000  2.828047e-03
  4.505000  2.823744e-03
  4.506000  2.819157e-03
  4.507000  2.818620e-03
  4.508000  2.814321e-03
  4.509000  2.810023e-03
  4.510000  2.809481e-03
  4.511000  2.805257e-03
  4.512000  2.801032e-03
  4.513000  2.800567e-03
  4.514000  2.796342e-03
  4.515000  2.791556e-03
  4.516000  2.791659e-03
  4.517000  2.787149e-03
  4.518000  2.782362e-03
  4.519000  2.778138e-03
  4.520000  2.777676e-03
  4.521000  2.773396e-03
  4.522000  2.768552e-03
  4.523000  2.764593e-03
  4.524000  2.760308e-03
  4.525000  2.759792e-03
  4.526000  2.755230e-03
  4.527000  2.750391e-03
  4.528000  2.750433e-03
  4.529000  2.745596e-03
  4.530000  2.741635e-03
  4.531000  2.741097e-03
  4.532000  2.736792e-03
  4.533000  2.731653e-03
  4.534000  2.731672e-03
  4.535000  2.726816e-03
  4.536000  2.722831e-03
  4.537000  2.717972e-03
  4.538000  2.713669e-03
  4.539000  2.708543e-03
  4.540000  2.708561e-03
  4.541000  2.704103e-03
  4.542000  2.699876e-03
  4.543000  2.699421e-03
  4.544000  2.695193e-03
  4.545000  2.690461e-03
  4.546000  2.690552e-03
  4.547000  2.685782e-03
  4.548000  2.681558e-03
  4.549000  2.681418e-03
  4.550000  2.677193e-03
  4.551000  2.672180e-03
  4.552000  2.668299e-03
  4.553000  2.663563e-03
  4.554000  2.663682e-03
  4.555000  2.659256e-03
  4.556000  2.655058e-03
  4.557000  2.654373e-03
  4.558000  2.649640e-03
  4.559000  2.645753e-03
  4.560000  2.645335e-03
  4.561000  2.641061e-03
  4.562000  2.636558e-03
  4.563000  2.636332e-03
  4.564000  2.631828e-03
  4.565000  2.627555e-03
  4.566000  2.627061e-03
  4.567000  2.623095e-03
  4.568000  2.618288e-03
  4.569000  2.618062e-03
  4.570000  2.613562e-03
  4.571000  2.609349e-03
  4.572000  2.605441e-03
  4.573000  2.600697e-03
  4.574000  2.600797e-03
  4.575000  2.596097e-03
  4.576000  2.591882e-03
  4.577000  2.591453e-03
  4.578000  2.587546e-03
  4.579000  2.582806e-03
  4.580000  2.583206e-03
  4.581000  2.578406e-03
  4.582000  2.574176e-03
  4.583000  2.574214e-03
  4.584000  2.569418e-03
  4.585000  2.565444e-03
  4.586000  2.560650e-03
  4.587000  2.560988e-03
  4.588000  2.556715e-03
  4.589000  2.551961e-03
  4.590000  2.547690e-03
  4.591000  2.547176e-03
  4.592000  2.543169e-03
  4.593000  2.538867e-03
  4.594000  2.538654e-03
  4.595000  2.534351e-03
  4.596000  2.530343e-03
  4.597000  2.529576e-03
  4.598000  2.525568e-03
  4.599000  2.521264e-03
  4.600000  2.521566e-03
  4.601000  2.516748e-03
  4.602000  2.512734e-03
  4.603000  2.512739e-03
  4.604000  2.508435e-03
  4.605000  2.504423e-03
  4.606000  2.500116e-03
  4.607000  2.499902e-03
  4.608000  2.495598e-03
  4.609000  2.491582e-03
  4.610000  2.487278e-03
  4.611000  2.487593e-03
  4.612000  2.483309e-03
  4.613000  2.479312e-03
  4.614000  2.479339e-03
  4.615000  2.474838e-03
  4.616000  2.470553e-03
  4.617000  2.470865e-03
  4.618000  2.466581e-03
  4.619000  2.462580e-03
  4.620000  2.462605e-03
  4.621000  2.458574e-03
  4.622000  2.454251e-03
  4.623000  2.449968e-03
  4.624000  2.445647e-03
  4.625000  2.445924e-03
  4.626000  2.441602e-03
  4.627000  2.437565e-03
  4.628000  2.437556e-03
  4.629000  2.433518e-03
  4.630000  2.433757e-03
  4.631000  2.429728e-03
  4.632000  2.425418e-03
  4.633000  2.425706e-03
  4.634000  2.421396e-03
  4.635000  2.417366e-03
  4.636000  2.417371e-03
  4.637000  2.413340e-03
  4.638000  2.409026e-03
  4.639000  2.409031e-03
  4.640000  2.405000e-03
  4.641000  2.400634e-03
  4.642000  2.396541e-03
  4.643000  2.392175e-03
  4.644000  2.392401e-03
  4.645000  2.388034e-03
  4.646000  2.383945e-03
  4.647000  2.383892e-03
  4.648000  2.379803e-03
  4.649000  2.375432e-03
  4.650000  2.375659e-03
  4.651000  2.371342e-03
  4.652000  2.371621e-03
  4.653000  2.367304e-03
  4.654000  2.363745e-03
  4.655000  2.359425e-03
  4.656000  2.359428e-03
  4.657000  2.355383e-03
  4.658000  2.351064e-03
  4.659000  2.347018e-03
  4.660000  2.347023e-03
  4.661000  2.342936e-03
  4.662000  2.338575e-03
  4.663000  2.338809e-03
  4.664000  2.334448e-03
  4.665000  2.330802e-03
  4.666000  2.331035e-03
  4.667000  2.326673e-03
  4.668000  2.322581e-03
  4.669000  2.322542e-03
  4.670000  2.318453e-03
  4.671000  2.318484e-03
  4.672000  2.314191e-03
  4.673000  2.310168e-03
  4.674000  2.310672e-03
  4.675000  2.306643e-03
  4.676000  2.302348e-03
  4.677000  2.298054e-03
  4.678000  2.294024e-03
  4.679000  2.294056e-03
  4.680000  2.290027e-03
  4.681000  2.285631e-03
  4.682000  2.286029e-03
  4.683000  2.281898e-03
  4.684000  2.282064e-03
  4.685000  2.277932e-03
  4.686000  2.273534e-03
  4.687000  2.273467e-03
  4.688000  2.269333e-03
  4.689000  2.265401e-03
  4.690000  2.265334e-03
  4.691000  2.261281e-03
  4.692000  2.256962e-03
  4.693000  2.252645e-03
  4.694000  2.248589e-03
  4.695000  2.248600e-03
  4.696000  2.244283e-03
  4.697000  2.245014e-03
  4.698000  2.240695e-03
  4.699000  2.236373e-03
  4.700000  2.236647e-03
  4.701000  2.232281e-03
  4.702000  2.227914e-03
  4.703000  2.228109e-03
  4.704000  2.224000e-03
  4.705000  2.219634e-03
  4.706000  2.219603e-03
  4.707000  2.215944e-03
  4.708000  2.215912e-03
  4.709000  2.211545e-03
  4.710000  2.207176e-03
  4.711000  2.203120e-03
  4.712000  2.203141e-03
  4.713000  2.198830e-03
  4.714000  2.194515e-03
  4.715000  2.190455e-03
  4.716000  2.190923e-03
  4.717000  2.186607e-03
  4.718000  2.182293e-03
  4.719000  2.182567e-03
  4.720000  2.178253e-03
  4.721000  2.178211e-03
  4.722000  2.173833e-03
  4.723000  2.169457e-03
  4.724000  2.169890e-03
  4.725000  2.165952e-03
  4.726000  2.161572e-03
  4.727000  2.157192e-03
  4.728000  2.157154e-03
  4.729000  2.152774e-03
  4.730000  2.148644e-03
  4.731000  2.148668e-03
  4.732000  2.144349e-03
  4.733000  2.140032e-03
  4.734000  2.140488e-03
  4.735000  2.136170e-03
  4.736000  2.131850e-03
  4.737000  2.132121e-03
  4.738000  2.127802e-03
  4.739000  2.127823e-03
  4.740000  2.123505e-03
  4.741000  2.119196e-03
  4.742000  2.119663e-03
  4.743000  2.115570e-03
  4.744000  2.111261e-03
  4.745000  2.111298e-03
  4.746000  2.106990e-03
  4.747000  2.102678e-03
  4.748000  2.098372e-03
  4.749000  2.098650e-03
  4.750000  2.094340e-03
  4.751000  2.090458e-03
  4.752000  2.090492e-03
  4.753000  2.086182e-03
  4.754000  2.086215e-03
  4.755000  2.081905e-03
  4.756000  2.077594e-03
  4.757000  2.077628e-03
  4.758000  2.073316e-03
  4.759000  2.069007e-03
  4.760000  2.069039e-03
  4.761000  2.065107e-03
  4.762000  2.060757e-03
  4.763000  2.060753e-03
  4.764000  2.056607e-03
  4.765000  2.052017e-03
  4.766000  2.052013e-03
  4.767000  2.047659e-03
  4.768000  2.043309e-03
  4.769000  2.043302e-03
  4.770000  2.038951e-03
  4.771000  2.035062e-03
  4.772000  2.035106e-03
  4.773000  2.030801e-03
  4.774000  2.026496e-03
  4.775000  2.026538e-03
  4.776000  2.022000e-03
  4.777000  2.022042e-03
  4.778000  2.017736e-03
  4.779000  2.013432e-03
  4.780000  2.013473e-03
  4.781000  2.009140e-03
  4.782000  2.004807e-03
  4.783000  2.000240e-03
  4.784000  2.000662e-03
  4.785000  1.996329e-03
  4.786000  1.991995e-03
  4.787000  1.992007e-03
  4.788000  1.987443e-03
  4.789000  1.983109e-03
  4.790000  1.983123e-03
  4.791000  1.978798e-03
  4.792000  1.978592e-03
  4.793000  1.974266e-03
  4.794000  1.969941e-03
  4.795000  1.970165e-03
  4.796000  1.965611e-03
  4.797000  1.961287e-03
  4.798000  1.961308e-03
  4.799000  1.956984e-03
  4.800000  1.952431e-03
  4.801000  1.952417e-03
  4.802000  1.948054e-03
  4.803000  1.943466e-03
  4.804000  1.943452e-03
  4.805000  1.939091e-03
  4.806000  1.934503e-03
  4.807000  1.934489e-03
  4.808000  1.930128e-03
  4.809000  1.925543e-03
  4.810000  1.925529e-03
  4.811000  1.921192e-03
  4.812000  1.920779e-03
  4.813000  1.916441e-03
  4.814000  1.911883e-03
  4.815000  1.911888e-03
  4.816000  1.907164e-03
  4.817000  1.906949e-03
  4.818000  1.902614e-03
  4.819000  1.898058e-03
  4.820000  1.898063e-03
  4.821000  1.893756e-03
  4.822000  1.889228e-03
  4.823000  1.884923e-03
  4.824000  1.884739e-03
  4.825000  1.880432e-03
  4.826000  1.875906e-03
  4.827000  1.875940e-03
  4.828000  1.871418e-03
  4.829000  1.871072e-03
  4.830000  1.866549e-03
  4.831000  1.862229e-03
  4.832000  1.862033e-03
  4.833000  1.857713e-03
  4.834000  1.857517e-03
  4.835000  1.853197e-03
  4.836000  1.848663e-03
  4.837000  1.844130e-03
  4.838000  1.844150e-03
  4.839000  1.839241e-03
  4.840000  1.834925e-03
  4.841000  1.834677e-03
  4.842000  1.830094e-03
  4.843000  1.825724e-03
  4.844000  1.825478e-03
  4.845000  1.821109e-03
  4.846000  1.820862e-03
  4.847000  1.816282e-03
  4.848000  1.811913e-03
  4.849000  1.811118e-03
  4.850000  1.806542e-03
  4.851000  1.806591e-03
  4.852000  1.802096e-03
  4.853000  1.797603e-03
  4.854000  1.797652e-03
  4.855000  1.793159e-03
  4.856000  1.788667e-03
  4.857000  1.788716e-03
  4.858000  1.783862e-03
  4.859000  1.779372e-03
  4.860000  1.779213e-03
  4.861000  1.774925e-03
  4.862000  1.770431e-03
  4.863000  1.770268e-03
  4.864000  1.765775e-03
  4.865000  1.765815e-03
  4.866000  1.761324e-03
  4.867000  1.756475e-03
  4.868000  1.756311e-03
  4.869000  1.752028e-03
  4.870000  1.751864e-03
  4.871000  1.747358e-03
  4.872000  1.742852e-03
  4.873000  1.742672e-03
  4.874000  1.738371e-03
  4.875000  1.733867e-03
  4.876000  1.733160e-03
  4.877000  1.728659e-03
  4.878000  1.724160e-03
  4.879000  1.723979e-03
  4.880000  1.719481e-03
  4.881000  1.715199e-03
  4.882000  1.715039e-03
  4.883000  1.710557e-03
  4.884000  1.710397e-03
  4.885000  1.705915e-03
  4.886000  1.701438e-03
  4.887000  1.700929e-03
  4.888000  1.696454e-03
  4.889000  1.691977e-03
  4.890000  1.691818e-03
  4.891000  1.687337e-03
  4.892000  1.687367e-03
  4.893000  1.682889e-03
  4.894000  1.678410e-03
  4.895000  1.678245e-03
  4.896000  1.673767e-03
  4.897000  1.669289e-03
  4.898000  1.669126e-03
  4.899000  1.664649e-03
  4.900000  1.660174e-03
  4.901000  1.659962e-03
  4.902000  1.655442e-03
  4.903000  1.655230e-03
  4.904000  1.650710e-03
  4.905000  1.646191e-03
  4.906000  1.645644e-03
  4.907000  1.640937e-03
  4.908000  1.640727e-03
  4.909000  1.636212e-03
  4.910000  1.631700e-03
  4.911000  1.631541e-03
  4.912000  1.627079e-03
  4.913000  1.622617e-03
  4.914000  1.622461e-03
  4.915000  1.618000e-03
  4.916000  1.613542e-03
  4.917000  1.613386e-03
  4.918000  1.608926e-03
  4.919000  1.608583e-03
  4.920000  1.604452e-03
  4.921000  1.599985e-03
  4.922000  1.599818e-03
  4.923000  1.595351e-03
  4.924000  1.595184e-03
  4.925000  1.590718e-03
  4.926000  1.586068e-03
  4.927000  1.585901e-03
  4.928000  1.581439e-03
  4.929000  1.581274e-03
  4.930000  1.576813e-03
  4.931000  1.572164e-03
  4.932000  1.571996e-03
  4.933000  1.567534e-03
  4.934000  1.563074e-03
  4.935000  1.562907e-03
  4.936000  1.558265e-03
  4.937000  1.553807e-03
  4.938000  1.553640e-03
  4.939000  1.549184e-03
  4.940000  1.548837e-03
  4.941000  1.544392e-03
  4.942000  1.539946e-03
  4.943000  1.539790e-03
  4.944000  1.535167e-03
  4.945000  1.535011e-03
  4.946000  1.530569e-03
  4.947000  1.525948e-03
  4.948000  1.525793e-03
  4.949000  1.521354e-03
  4.950000  1.521022e-03
  4.951000  1.516584e-03
  4.952000  1.512151e-03
  4.953000  1.512131e-03
  4.954000  1.507697e-03
  4.955000  1.503265e-03
  4.956000  1.502937e-03
  4.957000  1.498507e-03
  4.958000  1.494077e-03
  4.959000  1.493750e-03
  4.960000  1.489323e-03
  4.961000  1.488998e-03
  4.962000  1.484569e-03
  4.963000  1.484419e-03
  4.964000  1.479817e-03
  4.965000  1.475393e-03
  4.966000  1.475070e-03
  4.967000  1.470647e-03
  4.968000  1.470499e-03
  4.969000  1.466051e-03
  4.970000  1.461630e-03
  4.971000  1.461328e-03
  4.972000  1.456929e-03
  4.973000  1.452655e-03
  4.974000  1.452528e-03
  4.975000  1.447958e-03
  4.976000  1.443561e-03
  4.977000  1.443264e-03
  4.978000  1.438869e-03
  4.979000  1.438742e-03
  4.980000  1.434178e-03
  4.981000  1.429611e-03
  4.982000  1.429481e-03
  4.983000  1.424916e-03
  4.984000  1.424785e-03
  4.985000  1.420222e-03
  4.986000  1.415829e-03
  4.987000  1.415532e-03
  4.988000  1.411140e-03
  4.989000  1.410844e-03
  4.990000  1.406455e-03
  4.991000  1.401898e-03
  4.992000  1.401768e-03
  4.993000  1.397499e-03
  4.994000  1.392946e-03
  4.995000  1.392819e-03
  4.996000  1.388269e-03
  4.997000  1.388141e-03
  4.998000  1.383591e-03
  4.999000  1.379045e-03
  5.000000  1.378919e-03
  5.001000  1.374317e-03
  5.002000  1.374135e-03
  5.003000  1.369538e-03
  5.004000  1.364940e-03
  5.005000  1.364758e-03
  5.006000  1.360165e-03
  5.007000  1.359822e-03
  5.008000  1.355233e-03
  5.009000  1.350806e-03
  5.010000  1.350463e-03
  5.011000  1.345915e-03
  5.012000  1.345772e-03
  5.013000  1.341227e-03
  5.014000  1.336682e-03
  5.015000  1.336381e-03
  5.016000  1.332269e-03
  5.017000  1.331967e-03
  5.018000  1.327428e-03
  5.019000  1.323047e-03
  5.020000  1.322749e-03
  5.021000  1.318213e-03
  5.022000  1.317915e-03
  5.023000  1.313541e-03
  5.024000  1.309007e-03
  5.025000  1.308712e-03
  5.026000  1.304182e-03
  5.027000  1.303888e-03
  5.028000  1.299518e-03
  5.029000  1.294993e-03
  5.030000  1.294699e-03
  5.031000  1.290177e-03
  5.032000  1.289886e-03
  5.033000  1.285522e-03
  5.034000  1.281134e-03
  5.035000  1.280844e-03
  5.036000  1.276329e-03
  5.037000  1.276039e-03
  5.038000  1.271680e-03
  5.039000  1.267168e-03
  5.040000  1.266882e-03
  5.041000  1.262373e-03
  5.042000  1.262087e-03
  5.043000  1.257582e-03
  5.044000  1.257297e-03
  5.045000  1.252944e-03
  5.046000  1.248443e-03
  5.047000  1.248160e-03
  5.048000  1.243663e-03
  5.049000  1.243380e-03
  5.050000  1.238883e-03
  5.051000  1.234390e-03
  5.052000  1.234110e-03
  5.053000  1.229765e-03
  5.054000  1.229486e-03
  5.055000  1.224998e-03
  5.056000  1.220510e-03
  5.057000  1.220232e-03
  5.058000  1.215748e-03
  5.059000  1.215471e-03
  5.060000  1.210989e-03
  5.061000  1.206755e-03
  5.062000  1.206480e-03
  5.063000  1.202002e-03
  5.064000  1.201727e-03
  5.065000  1.197253e-03
  5.066000  1.196980e-03
  5.067000  1.192652e-03
  5.068000  1.188183e-03
  5.069000  1.187910e-03
  5.070000  1.183442e-03
  5.071000  1.183172e-03
  5.072000  1.178708e-03
  5.073000  1.174245e-03
  5.074000  1.173976e-03
  5.075000  1.169517e-03
  5.076000  1.169248e-03
  5.077000  1.164791e-03
  5.078000  1.160337e-03
  5.079000  1.160072e-03
  5.080000  1.155619e-03
  5.081000  1.155354e-03
  5.082000  1.150905e-03
  5.083000  1.150641e-03
  5.084000  1.146194e-03
  5.085000  1.141749e-03
  5.086000  1.141488e-03
  5.087000  1.137046e-03
  5.088000  1.136648e-03
  5.089000  1.132208e-03
  5.090000  1.127772e-03
  5.091000  1.127513e-03
  5.092000  1.123080e-03
  5.093000  1.122822e-03
  5.094000  1.118392e-03
  5.095000  1.118135e-03
  5.096000  1.113705e-03
  5.097000  1.109280e-03
  5.098000  1.109025e-03
  5.099000  1.104602e-03
  5.100000  1.104124e-03
  5.101000  1.099705e-03
  5.102000  1.095286e-03
  5.103000  1.094900e-03
  5.104000  1.090486e-03
  5.105000  1.090234e-03
  5.106000  1.085823e-03
  5.107000  1.085573e-03
  5.108000  1.081164e-03
  5.109000  1.076757e-03
  5.110000  1.076507e-03
  5.111000  1.071974e-03
  5.112000  1.071725e-03
  5.113000  1.067325e-03
  5.114000  1.067079e-03
  5.115000  1.062681e-03
  5.116000  1.058156e-03
  5.117000  1.057910e-03
  5.118000  1.053518e-03
  5.119000  1.053274e-03
  5.120000  1.048885e-03
  5.121000  1.044369e-03
  5.122000  1.044126e-03
  5.123000  1.039743e-03
  5.124000  1.039501e-03
  5.125000  1.035121e-03
  5.126000  1.034753e-03
  5.127000  1.030376e-03
  5.128000  1.026000e-03
  5.129000  1.025760e-03
  5.130000  1.021263e-03
  5.131000  1.021053e-03
  5.132000  1.016711e-03
  5.133000  1.016377e-03
  5.134000  1.012039e-03
  5.135000  1.007699e-03
  5.136000  1.007492e-03
  5.137000  1.003035e-03
  5.138000  1.002828e-03
  5.139000  9.984968e-04
  5.140000  9.981678e-04
  5.141000  9.938126e-04
  5.142000  9.894570e-04
  5.143000  9.891046e-04
  5.144000  9.847548e-04
  5.145000  9.845244e-04
  5.146000  9.800565e-04
  5.147000  9.797271e-04
  5.148000  9.751855e-04
  5.149000  9.707229e-04
  5.150000  9.704962e-04
  5.151000  9.660400e-04
  5.152000  9.658146e-04
  5.153000  9.614808e-04
  5.154000  9.611373e-04
  5.155000  9.568064e-04
  5.156000  9.565824e-04
  5.157000  9.521371e-04
  5.158000  9.478118e-04
  5.159000  9.474721e-04
  5.160000  9.431505e-04
  5.161000  9.429292e-04
  5.162000  9.384938e-04
  5.163000  9.382737e-04
  5.164000  9.338424e-04
  5.165000  9.295291e-04
  5.166000  9.291961e-04
  5.167000  9.248867e-04
  5.168000  9.246681e-04
  5.169000  9.202478e-04
  5.170000  9.200315e-04
  5.171000  9.156144e-04
  5.172000  9.113132e-04
  5.173000  9.109858e-04
  5.174000  9.066884e-04
  5.175000  9.062892e-04
  5.176000  9.018836e-04
  5.177000  9.016712e-04
  5.178000  8.972691e-04
  5.179000  8.970579e-04
  5.180000  8.926589e-04
  5.181000  8.883730e-04
  5.182000  8.880526e-04
  5.183000  8.837713e-04
  5.184000  8.834530e-04
  5.185000  8.791748e-04
  5.186000  8.788577e-04
  5.187000  8.745836e-04
  5.188000  8.702010e-04
  5.189000  8.699949e-04
  5.190000  8.656178e-04
  5.191000  8.654132e-04
  5.192000  8.610397e-04
  5.193000  8.608359e-04
  5.194000  8.564666e-04
  5.195000  8.562624e-04
  5.196000  8.517229e-04
  5.197000  8.474670e-04
  5.198000  8.471604e-04
  5.199000  8.429078e-04
  5.200000  8.426022e-04
  5.201000  8.383516e-04
  5.202000  8.381523e-04
  5.203000  8.338007e-04
  5.204000  8.336029e-04
  5.205000  8.292550e-04
  5.206000  8.250143e-04
  5.207000  8.248168e-04
  5.208000  8.205786e-04
  5.209000  8.202795e-04
  5.210000  8.160453e-04
  5.211000  8.158502e-04
  5.212000  8.116187e-04
  5.213000  8.114245e-04
  5.214000  8.071945e-04
  5.215000  8.027039e-04
  5.216000  8.025123e-04
  5.217000  7.982889e-04
  5.218000  7.980987e-04
  5.219000  7.938784e-04
  5.220000  7.936078e-04
  5.221000  7.894903e-04
  5.222000  7.893008e-04
  5.223000  7.850867e-04
  5.224000  7.808738e-04
  5.225000  7.806874e-04
  5.226000  7.764775e-04
  5.227000  7.762907e-04
  5.228000  7.720842e-04
  5.229000  7.718994e-04
  5.230000  7.676950e-04
  5.231000  7.673550e-04
  5.232000  7.631548e-04
  5.233000  7.630680e-04
  5.234000  7.588686e-04
  5.235000  7.546737e-04
  5.236000  7.544921e-04
  5.237000  7.502994e-04
  5.238000  7.501190e-04
  5.239000  7.459296e-04
  5.240000  7.457494e-04
  5.241000  7.415625e-04
  5.242000  7.413842e-04
  5.243000  7.371994e-04
  5.244000  7.330174e-04
  5.245000  7.328406e-04
  5.246000  7.286618e-04
  5.247000  7.283368e-04
  5.248000  7.241620e-04
  5.249000  7.239870e-04
  5.250000  7.198144e-04
  5.251000  7.196407e-04
  5.252000  7.153807e-04
  5.253000  7.152072e-04
  5.254000  7.110398e-04
  5.255000  7.068752e-04
  5.256000  7.066152e-04
  5.257000  7.024535e-04
  5.258000  7.022843e-04
  5.259000  6.980371e-04
  5.260000  6.978673e-04
  5.261000  6.934828e-04
  5.262000  6.933144e-04
  5.263000  6.890763e-04
  5.264000  6.888217e-04
  5.265000  6.846753e-04
  5.266000  6.844215e-04
  5.267000  6.801907e-04
  5.268000  6.758946e-04
  5.269000  6.757310e-04
  5.270000  6.715077e-04
  5.271000  6.712595e-04
  5.272000  6.670410e-04
  5.273000  6.667937e-04
  5.274000  6.624444e-04
  5.275000  6.621989e-04
  5.276000  6.579057e-04
  5.277000  6.576621e-04
  5.278000  6.534577e-04
  5.279000  6.531316e-04
  5.280000  6.488479e-04
  5.281000  6.446531e-04
  5.282000  6.443302e-04
  5.283000  6.400578e-04
  5.284000  6.397370e-04
  5.285000  6.354708e-04
  5.286000  6.351516e-04
  5.287000  6.307612e-04
  5.288000  6.304450e-04
  5.289000  6.261905e-04
  5.290000  6.259570e-04
  5.291000  6.217080e-04
  5.292000  6.214755e-04
  5.293000  6.172307e-04
  5.294000  6.130711e-04
  5.295000  6.127622e-04
  5.296000  6.084498e-04
  5.297000  6.080646e-04
  5.298000  6.037600e-04
  5.299000  6.032206e-04
  5.300000  5.986467e-04
  5.301000  5.979554e-04
  5.302000  5.933618e-04
  5.303000  5.925221e-04
  5.304000  5.877136e-04
  5.305000  5.866488e-04
  5.306000  5.817071e-04
  5.307000  5.804217e-04
  5.308000  5.752182e-04
  5.309000  5.698649e-04
  5.310000  5.682226e-04
  5.311000  5.626780e-04
  5.312000  5.607084e-04
  5.313000  5.549052e-04
  5.314000  5.527665e-04
  5.315000  5.467845e-04
  5.316000  5.444412e-04
  5.317000  5.382860e-04
  5.318000  5.357390e-04
  5.319000  5.294184e-04
  5.320000  5.267451e-04
  5.321000  5.202624e-04
  5.322000  5.173917e-04
  5.323000  5.107223e-04
  5.324000  5.077281e-04
  5.325000  5.010146e-04
  5.326000  4.943455e-04
  5.327000  4.911130e-04
  5.328000  4.843703e-04
  5.329000  4.810915e-04
  5.330000  4.742117e-04
  5.331000  4.707474e-04
  5.332000  4.638735e-04
  5.333000  4.603664e-04
  5.334000  4.532712e-04
  5.335000  4.496529e-04
  5.336000  4.426633e-04
  5.337000  4.390038e-04
  5.338000  4.319621e-04
  5.339000  4.282632e-04
  5.340000  4.212386e-04
  5.341000  4.174326e-04
  5.342000  4.104280e-04
  5.343000  4.065190e-04
  5.344000  3.994955e-04
  5.345000  3.924934e-04
  5.346000  3.885797e-04
  5.347000  3.816841e-04
  5.348000  3.777349e-04
  5.349000  3.708665e-04
  5.350000  3.669481e-04
  5.351000  3.601715e-04
  5.352000  3.562200e-04
  5.353000  3.494736e-04
  5.354000  3.455529e-04
  5.355000  3.388362e-04
  5.356000  3.348789e-04
  5.357000  3.282589e-04
  5.358000  3.244014e-04
  5.359000  3.178775e-04
  5.360000  3.140514e-04
  5.361000  3.076211e-04
  5.362000  3.038262e-04
  5.363000  2.975514e-04
  5.364000  2.937879e-04
  5.365000  2.876079e-04
  5.366000  2.838177e-04
  5.367000  2.777926e-04
  5.368000  2.718282e-04
  5.369000  2.682183e-04
  5.370000  2.624051e-04
  5.371000  2.588847e-04
  5.372000  2.532222e-04
  5.373000  2.497898e-04
  5.374000  2.442155e-04
  5.375000  2.408708e-04
  5.376000  2.354999e-04
  5.377000  2.321703e-04
  5.378000  2.269446e-04
  5.379000  2.237730e-04
  5.380000  2.187442e-04
  5.381000  2.156560e-04
  5.382000  2.107652e-04
  5.383000  2.078162e-04
  5.384000  2.031159e-04
  5.385000  2.003051e-04
  5.386000  1.957368e-04
  5.387000  1.930202e-04
  5.388000  1.886361e-04
  5.389000  1.861475e-04
  5.390000  1.819956e-04
  5.391000  1.796370e-04
  5.392000  1.756606e-04
  5.393000  1.734305e-04
  5.394000  1.696750e-04
  5.395000  1.675715e-04
  5.396000  1.639815e-04
  5.397000  1.619688e-04
  5.398000  1.584887e-04
  5.399000  1.566329e-04
  5.400000  1.533100e-04
  5.401000  1.515226e-04
  5.402000  1.483541e-04
  5.403000  1.466348e-04
  5.404000  1.435164e-04
  5.405000  1.404819e-04
  5.406000  1.388460e-04
  5.407000  1.358322e-04
  5.408000  1.342495e-04
  5.409000  1.313126e-04
  5.410000  1.297111e-04
  5.411000  1.268230e-04
  5.412000  1.252387e-04
  5.413000  1.223995e-04
  5.414000  1.208313e-04
  5.415000  1.179943e-04
  5.416000  1.164427e-04
  5.417000  1.136324e-04
  5.418000  1.120982e-04
  5.419000  1.093617e-04
  5.420000  1.078896e-04
  5.421000  1.052027e-04
  5.422000  1.037013e-04
  5.423000  1.011096e-04
  5.424000  9.966930e-05
  5.425000  9.712677e-05
  5.426000  9.568314e-05
  5.427000  9.318873e-05
  5.428000  9.178159e-05
  5.429000  8.933573e-05
  5.430000  8.798765e-05
  5.431000  8.559054e-05
  5.432000  8.425805e-05
  5.433000  8.195057e-05
  5.434000  8.063428e-05
  5.435000  7.837379e-05
  5.436000  7.705729e-05
  5.437000  7.488539e-05
  5.438000  7.363508e-05
  5.439000  7.146779e-05
  5.440000  7.023968e-05
  5.441000  6.820012e-05
  5.442000  6.698717e-05
  5.443000  6.499211e-05
  5.444000  6.383370e-05
  5.445000  6.187057e-05
  5.446000  6.072708e-05
  5.447000  5.882021e-05
  5.448000  5.773073e-05
  5.449000  5.590572e-05
  5.450000  5.482988e-05
  5.451000  5.308576e-05
  5.452000  5.206184e-05
  5.453000  5.035796e-05
  5.454000  4.934818e-05
  5.455000  4.771235e-05
  5.456000  4.675319e-05
  5.457000  4.516659e-05
  5.458000  4.422070e-05
  5.459000  4.270966e-05
  5.460000  4.181269e-05
  5.461000  4.037485e-05
  5.462000  3.952584e-05
  5.463000  3.812441e-05
  5.464000  3.728005e-05
  5.465000  3.594930e-05
  5.466000  3.515902e-05
  5.467000  3.389729e-05
  5.468000  3.314915e-05
  5.469000  3.192086e-05
  5.470000  3.118718e-05
  5.471000  3.002503e-05
  5.472000  2.936817e-05
  5.473000  2.826968e-05
  5.474000  2.761736e-05
  5.475000  2.697077e-05
  5.476000  2.635650e-05
  5.477000  2.577456e-05
  5.478000  2.519264e-05
  5.479000  2.461069e-05
  5.480000  2.406107e-05
  5.481000  2.351146e-05
  5.482000  2.296183e-05
  5.483000  2.247228e-05
  5.484000  2.195508e-05
  5.485000  2.147022e-05
  5.486000  2.101768e-05
  5.487000  2.056513e-05
  5.488000  2.011259e-05
  5.489000  1.969236e-05
  5.490000  1.927212e-05
  5.491000  1.888422e-05
  5.492000  1.852489e-05
  5.493000  1.816938e-05
  5.494000  1.784619e-05
  5.495000  1.752303e-05
  5.496000  1.723217e-05
  5.497000  1.693959e-05
  5.498000  1.664877e-05
  5.499000  1.639025e-05
  5.500000  1.616406e-05
